jMRUI Data Textfile

Filename: dataset27_nWS.txt

PointsInDataset: 2048      
DatasetsInFile: 1         
SamplingInterval: 2.5E-1    
ZeroOrderPhase: 0E0       
BeginTime: 0E0       
TransmitterFrequency: 1.2322E8  
MagneticField: 2.9E0     
TypeOfNucleus: 0E0       
NameOfPatient: dataset27_nWS
DateOfExperiment: 
Spectrometer: 
AdditionalInfo: dataset27_nWS
SignalNames: dataset27_nWS.txt;


Signal and FFT
sig(real)	sig(imag)	fft(real)	fft(imag)
Signal 1 out of 1 in file
48943.3800000	-98.7529950
48904.6160000	-179.8751800
48491.1550000	-283.3323300
48076.4290000	-293.5636200
47741.3380000	-241.1907900
47432.0790000	-167.7976400
47142.7040000	-36.7745200
47056.3500000	32.2558180
46929.7930000	106.9291000
46760.7990000	128.9647900
46609.1090000	17.3179790
46401.0310000	-63.5342450
46095.4270000	-84.9720620
45805.1430000	-140.2394800
45547.4880000	-96.6011820
45326.5110000	-32.7466660
45136.9380000	51.9993750
44957.0100000	80.0081880
44778.7500000	47.3553140
44607.5620000	2.2353219
44396.7210000	24.3294710
44135.3850000	-21.1709730
43900.0730000	-34.9015980
43689.6690000	39.6736920
43417.9040000	49.0804320
43264.1810000	73.5205390
43135.6290000	72.2960950
43000.4340000	95.9608440
42811.9290000	35.2200820
42586.1290000	-9.1343948
42337.0360000	-69.2287010
42092.7990000	-135.2801100
41862.1670000	-110.9960300
41658.6020000	-4.2994359
41447.3940000	22.2500020
41252.2020000	30.2047760
41131.5800000	135.9832300
40953.5200000	74.3309920
40777.9990000	116.3129600
40678.3420000	30.3556800
40492.5920000	25.4282890
40261.5700000	-59.0291180
40025.5970000	-83.3720240
39834.3100000	-48.9259040
39576.8760000	-24.0504860
39427.7870000	4.2179918
39236.4410000	51.3301770
39067.7630000	45.4355520
38904.0780000	-3.6681165
38696.4570000	-6.8091620
38571.7570000	-67.4216930
38389.5900000	-46.7203040
38094.0410000	-77.9143140
37940.5150000	-51.6326570
37682.8840000	-11.4662100
37573.1210000	55.4792140
37413.5370000	39.0249270
37242.5970000	57.0858260
37105.1120000	64.2519140
36999.6310000	60.0235860
36828.7930000	-11.7999600
36599.6570000	-57.1033120
36417.2250000	-78.9939970
36207.9260000	-42.0631520
35992.7120000	-1.2704420
35866.0360000	-25.4724850
35737.3940000	20.6489310
35527.1700000	67.9116140
35381.0980000	27.6023080
35251.0210000	-35.8884920
35108.6210000	-50.0925800
34876.3310000	-32.1516510
34708.0310000	-24.6374630
34527.9220000	-48.2404240
34389.0810000	-9.2639269
34177.2100000	14.3862980
34052.7400000	12.4866060
33949.9480000	8.9271639
33763.7090000	-8.4684895
33570.8970000	-19.4481750
33442.3220000	-39.9289860
33246.4720000	-46.1521120
33088.4350000	11.1134980
32877.7500000	58.0070330
32736.5830000	48.6216860
32646.8250000	87.8808410
32570.5060000	38.7180460
32379.6050000	30.2926260
32286.9830000	-31.3350170
32131.2150000	-46.7351430
31932.3820000	-78.4936050
31773.5710000	-55.2788380
31536.8860000	-45.1913560
31435.6020000	8.7515672
31258.1000000	-28.1253140
31164.0670000	29.5999650
31018.3850000	6.8420212
30846.7150000	-27.0759890
30716.1400000	34.9349660
30614.0720000	1.7114530
30407.7230000	-15.7694110
30296.6490000	-67.0762080
30103.5480000	-40.5684340
30011.8260000	-12.3514320
29800.8690000	20.0276480
29659.6250000	-11.3234940
29568.7380000	7.2396432
29466.3430000	20.7256820
29341.6900000	-13.3793420
29124.1710000	25.8238050
28978.3630000	2.7491729
28898.2480000	-29.2096010
28776.7270000	45.3165740
28617.1510000	-8.7513362
28488.9350000	25.2257800
28377.3560000	-17.3226930
28261.0940000	0.2851879
28105.3320000	-15.8014150
27997.0270000	-38.7888230
27845.0020000	-17.5338080
27674.4630000	-3.8802560
27546.4750000	-4.8041491
27386.5700000	-23.5483460
27263.1870000	-14.9465640
27116.8940000	7.3524476
27020.5390000	-7.8793977
26934.4580000	5.2589887
26815.8800000	19.4970040
26695.6360000	29.3917440
26542.3400000	-28.6806370
26436.4890000	16.2157410
26318.9970000	43.5468440
26169.7400000	-24.7243040
26074.1790000	18.0227110
25899.9300000	25.4709360
25830.0930000	43.5297030
25692.4420000	51.2963630
25555.6480000	-6.0053462
25495.9190000	-7.9538109
25332.0040000	-60.0275350
25193.7100000	-30.6999050
25059.5100000	-3.8710804
24960.6030000	-11.2401800
24833.1510000	-49.1669710
24718.5920000	3.3617143
24562.6400000	30.0043540
24492.3670000	-11.0922150
24342.8860000	8.2976516
24275.7780000	-25.7281880
24137.9530000	-22.3928860
24047.8640000	-9.4780539
23913.2560000	-26.8060090
23828.5440000	30.1599460
23702.1260000	12.9928330
23579.6220000	4.3221586
23525.4550000	-11.7912750
23418.5140000	-4.9089229
23235.1380000	-0.0922214
23199.2060000	30.4028350
23062.6260000	-19.8902560
22948.6150000	-27.7391050
22813.7010000	-33.2966020
22689.1080000	33.4081130
22634.3340000	-1.0862669
22467.7970000	-24.3246900
22384.1610000	32.4920980
22324.2400000	26.1441410
22202.0790000	-35.0345100
22093.0470000	12.2201940
21974.1670000	30.1858220
21857.0980000	44.9875500
21790.0330000	-21.5697030
21644.1320000	40.4192860
21603.7230000	64.9689790
21461.5420000	7.0904593
21395.9300000	-17.2115250
21286.5450000	17.1016680
21161.8490000	-1.0386814
21053.9940000	-22.9453730
21016.7160000	-43.1717690
20883.8010000	12.3134960
20808.3730000	15.4356340
20679.8450000	-11.5571890
20620.1810000	20.9558180
20492.7610000	-41.4389800
20415.9540000	-30.4932450
20297.1740000	-26.0536540
20203.3270000	-49.2264160
20055.1930000	-41.1960650
20031.4380000	-16.2958780
19933.8960000	21.1529040
19792.8310000	-0.2758769
19704.9250000	-6.1672346
19631.8650000	30.3739400
19549.4280000	5.1542786
19452.1020000	61.2051990
19353.0070000	6.8274101
19245.4050000	44.8694320
19184.5360000	35.5633600
19084.9020000	-26.7493870
19005.5730000	14.3995650
18895.7260000	-35.5667760
18854.1010000	12.3512110
18690.5780000	-24.1439520
18674.0140000	9.7843543
18589.1530000	-37.1161450
18503.2340000	-25.6578020
18358.2430000	-11.9898930
18300.2750000	-34.4234410
18216.0510000	20.6240360
18128.3230000	-3.7371231
18006.5120000	-24.1554000
17934.9270000	30.8272520
17818.0180000	16.2418430
17785.3860000	29.6043870
17685.5840000	24.3833890
17592.5180000	5.6184552
17544.3790000	56.6099170
17473.0170000	59.4788080
17399.0060000	-20.1754610
17310.3850000	-26.3668950
17257.2300000	39.2061920
17125.6430000	-18.4247830
17027.6210000	-41.7701200
16998.6960000	1.8174545
16871.7450000	26.2202100
16828.8670000	19.5492080
16752.3550000	11.3080610
16619.3130000	5.3936012
16599.0790000	11.7988220
16493.4190000	-52.9010680
16376.0970000	-44.5816540
16311.5210000	-9.9998161
16263.5730000	-44.4800120
16133.9450000	-12.6390970
16061.2380000	8.6111739
15993.2240000	23.6187470
15985.4460000	43.5197010
15841.0620000	11.5831140
15836.4320000	18.9257760
15692.6260000	-8.4205481
15623.3170000	-21.1355630
15573.4100000	-34.5818910
15510.8350000	26.3587350
15394.8500000	0.9526815
15367.3750000	-5.5060034
15312.1850000	42.3514120
15199.4840000	48.6795780
15152.5320000	-35.4760070
15061.8190000	-20.8874460
15000.4230000	-37.2456170
14892.8160000	8.4793622
14881.2380000	13.3724510
14806.9830000	-28.1168360
14674.5030000	17.7059550
14642.3740000	-28.6218310
14551.1980000	-13.8484940
14501.7610000	-19.4293620
14497.2180000	45.1549860
14413.4000000	-30.3567080
14293.9280000	13.0367670
14276.7790000	-2.2706670
14197.5100000	26.1031990
14065.9470000	17.9853510
14012.1750000	-21.8363810
14004.1430000	54.8638250
13906.1320000	-26.2558360
13899.2140000	-15.2788300
13807.6530000	19.0811770
13777.7670000	24.7881650
13644.1530000	-22.0290400
13625.2400000	-12.6322240
13518.0150000	-1.5720942
13429.4160000	-44.3629160
13437.4470000	6.7937054
13321.9470000	-29.4889490
13269.6760000	-16.9747130
13219.8780000	-29.2107580
13197.0530000	2.2061753
13069.8670000	-46.6896450
13021.7310000	-5.9371846
12985.5410000	-22.5193760
12920.2960000	-21.3085310
12824.8330000	-20.7314120
12731.9760000	-34.9612140
12727.0830000	-11.1194770
12678.7630000	6.7101093
12582.7240000	-26.9139450
12539.9910000	44.0906230
12526.3270000	41.7072830
12467.3350000	-23.2341590
12324.4250000	-3.8177466
12292.6580000	5.5731488
12242.7500000	-7.4375840
12170.7400000	4.2712982
12131.1460000	-11.2077080
12055.5320000	32.2775870
12000.9490000	-2.8904031
11977.9320000	7.7076558
11892.0760000	-10.3313560
11879.7860000	-32.5745630
11787.5380000	-9.0186454
11763.9830000	-23.4630460
11707.1370000	0.4121274
11657.4990000	4.2067290
11551.7060000	-10.8233970
11481.6870000	47.9753240
11494.0520000	35.3196260
11396.3830000	-20.0628250
11342.9120000	-3.7459641
11345.2960000	24.9565510
11250.9370000	-21.9704570
11195.0580000	1.7157450
11171.2040000	-21.8853030
11100.5590000	44.1429200
11074.7780000	-4.0011850
11005.5100000	31.3157920
10927.0950000	36.4393400
10869.9440000	35.8936780
10826.6100000	-15.9856090
10834.2780000	-46.8995700
10722.6820000	9.4918096
10716.4300000	26.5898520
10621.7250000	-45.6965930
10558.3210000	14.5589810
10529.1600000	38.1026540
10510.2090000	-43.8543990
10403.8860000	-44.0686370
10429.5310000	-16.7120750
10342.2770000	25.9645570
10243.8460000	21.9482800
10191.4180000	13.7517850
10165.0570000	-10.3374540
10108.0960000	19.1389320
10082.5550000	-6.0766261
10099.2460000	9.8978566
10021.5340000	47.3357060
9936.0852000	-24.1210950
9896.0560000	-13.2691580
9875.4229000	25.0665580
9861.0984000	14.0226040
9751.8452000	7.1433689
9766.8202000	19.5964980
9713.9671000	28.3769550
9650.5678000	-0.8080854
9586.4680000	-33.6056360
9565.2066000	19.5310090
9519.9054000	23.9606980
9437.1869000	-22.1844780
9420.7473000	30.0873950
9392.1449000	-25.3940280
9292.4602000	18.8261750
9299.7357000	38.3693460
9210.8032000	51.2891650
9240.5797000	44.1347850
9151.0747000	7.0523455
9100.0352000	-46.8032740
9041.4235000	31.8830590
9041.9420000	2.1741114
8959.9420000	-5.7984898
8938.4299000	-24.8951550
8876.2417000	11.6615470
8865.5754000	-19.6000100
8829.3636000	6.0536980
8755.2492000	11.9179330
8755.8387000	33.2823830
8736.3809000	-18.6768230
8684.9315000	-29.1079310
8589.6013000	-21.6555000
8547.8369000	1.6831280
8507.4955000	-22.2732420
8439.0722000	20.8514150
8401.4788000	-22.7869090
8401.6462000	34.2822080
8327.7092000	-5.0521907
8291.8578000	-28.6647220
8256.2742000	1.5995975
8242.2848000	4.8405612
8187.7222000	-13.6175200
8167.4553000	50.5890510
8139.3837000	15.4020270
8117.1971000	25.6700930
8115.0861000	25.7317530
8011.4657000	16.9209590
7977.7824000	24.2041910
7965.2918000	-48.9193790
7891.2523000	-50.1954760
7887.5719000	-47.2719320
7850.7808000	-33.4907180
7813.6451000	0.5449201
7787.3844000	42.9930290
7676.2972000	-15.3172970
7677.4571000	-21.6624920
7632.8340000	-7.7422290
7650.2996000	14.5866120
7572.7035000	-18.3527510
7583.1609000	1.4652303
7477.4504000	11.7222870
7471.7592000	-27.3793520
7418.5306000	-14.0590880
7433.6099000	-6.5056181
7369.3233000	-12.4227120
7322.7751000	41.2727980
7344.4494000	33.9534730
7286.4882000	-28.9344540
7200.9990000	-30.5754700
7165.3125000	-11.6395780
7189.5033000	-43.0318620
7105.0431000	-9.2615056
7089.0004000	36.3257910
7014.3533000	-19.5902360
7049.6890000	34.7537270
6962.6202000	22.1346300
6940.2343000	16.6633050
6920.6220000	32.8268150
6885.0607000	30.1613500
6852.9275000	-49.8449760
6847.9963000	-51.0736340
6751.3191000	-22.1885070
6741.1710000	-2.0748439
6691.3102000	1.7078987
6734.9788000	47.8434390
6695.8419000	33.6910280
6674.3499000	-10.3004400
6657.6034000	-17.5473110
6616.9304000	-32.4840320
6507.8589000	-13.0512510
6507.5390000	-37.4934310
6479.8974000	-18.5712460
6421.8149000	-31.6421000
6430.2327000	-11.5657300
6406.2926000	4.7234142
6357.3853000	-23.7073010
6345.6329000	30.5725410
6339.5494000	-19.0620400
6316.4892000	-34.4049580
6254.0777000	-45.7822860
6227.2042000	0.0482435
6198.9217000	27.3820870
6178.0711000	23.9949560
6157.6337000	47.8743170
6136.6992000	17.0385560
6092.3462000	3.3344886
6031.1106000	-27.3634020
6024.4827000	-10.8547220
5973.9654000	-0.7141981
5961.9729000	-28.5249790
5940.2387000	-42.6595260
5929.4498000	-24.3207510
5887.9291000	-35.0587970
5816.4691000	-20.8809920
5865.9587000	2.0671066
5816.2560000	38.0630570
5782.8423000	8.7967254
5740.6473000	-3.6529912
5707.2595000	-36.8664340
5676.3757000	-4.2756405
5637.7491000	20.9518480
5621.0837000	-49.8751780
5605.1851000	37.4946450
5575.9705000	24.5539560
5585.6808000	25.3885050
5491.9253000	-34.5125960
5479.7653000	-38.8549110
5434.2156000	-6.2521732
5475.8494000	36.6530220
5434.0613000	-27.3024300
5352.6499000	-19.1054720
5382.3208000	-31.8359220
5339.4286000	-4.2165655
5317.8652000	16.7787810
5309.5310000	50.8351450
5284.2450000	44.1085260
5276.9104000	17.7653740
5230.4862000	-28.7168640
5181.8409000	-5.4140933
5164.7069000	-31.8668210
5117.8596000	0.0129623
5141.0877000	-19.6347410
5130.9323000	44.8030580
5066.3198000	19.5799160
5050.3705000	22.0327340
5027.4102000	-14.7696140
4994.5308000	-43.0035720
5014.9021000	28.9041170
4915.7312000	-34.7267870
4884.7065000	-26.6470620
4916.1598000	-20.1619460
4849.4596000	-20.6395340
4868.8949000	-19.3128610
4824.5776000	7.3564197
4782.6234000	51.6985080
4837.2989000	-15.1777130
4811.2476000	41.0131380
4739.5642000	-28.3234950
4701.7316000	-13.1923690
4686.2558000	-14.6368170
4660.4514000	18.2121860
4661.8663000	-25.2898810
4625.0342000	-20.8449150
4608.8102000	-21.9203240
4581.3359000	2.3413565
4601.6677000	34.0048500
4545.9525000	32.2150930
4503.5689000	-13.4097410
4540.5141000	-6.2301988
4457.4393000	-30.3927460
4507.2602000	-23.1590580
4455.6686000	18.5106680
4457.5736000	-25.0960670
4442.7787000	29.3624320
4429.1331000	10.4299070
4406.6221000	32.8740210
4307.5688000	-14.9218710
4299.2528000	-31.5791430
4269.3415000	-40.8653210
4314.0894000	35.9314540
4288.1414000	16.4956920
4258.7495000	-5.6010945
4250.9294000	12.7814640
4210.6133000	-22.5834280
4174.7275000	24.6309930
4185.1122000	-46.2073750
4154.3717000	-19.5902760
4115.1345000	-38.9643920
4078.8655000	-42.8961730
4092.3030000	-1.0282361
4033.3082000	13.6328690
4060.5539000	1.1181456
4004.8669000	-13.8989280
3991.7274000	-13.2618940
4001.6086000	44.0506320
3943.2096000	29.0827940
3973.6375000	14.4971940
3954.9581000	-33.0599680
3941.8453000	-0.3358753
3924.5700000	-14.9422470
3912.6041000	-16.0759160
3885.0167000	31.6075880
3878.0687000	-1.8727250
3850.5438000	21.8135810
3822.9319000	3.4289243
3783.5858000	16.3415410
3757.0223000	37.1138760
3779.0236000	-15.0299530
3706.9699000	13.4030360
3691.4043000	-44.4522980
3715.3700000	-32.1626410
3703.3374000	-19.2992450
3679.0473000	-12.3881270
3615.8122000	16.0035980
3591.3039000	13.1164600
3630.4246000	-11.0928640
3628.1545000	13.8068940
3547.4691000	26.0525050
3581.3360000	-0.6954501
3504.1486000	12.3274390
3522.2398000	-19.1750090
3492.2707000	-10.0862900
3513.5050000	5.0052062
3484.5484000	-21.9548550
3495.5815000	-7.7548537
3462.5964000	30.2795200
3460.3785000	-16.7409310
3434.2550000	-23.1777230
3426.9242000	10.6860770
3400.9066000	19.0026230
3386.9084000	32.5973970
3368.0652000	14.3122070
3326.2921000	13.0730480
3319.9366000	28.4542480
3264.8796000	23.7624570
3325.6263000	-32.5636680
3234.6799000	41.4385600
3291.7926000	-29.0262610
3267.8094000	-31.3565130
3228.7514000	37.4399780
3257.4932000	-0.5201301
3209.2038000	6.8973764
3220.1534000	5.1489100
3135.5151000	-9.0121687
3136.6295000	-46.8101490
3130.0951000	-3.4631256
3149.6282000	1.3692084
3108.9636000	29.9515330
3115.7522000	36.9360690
3055.3731000	-39.2968920
3047.8090000	19.1217960
3067.6118000	19.9559910
3082.4287000	31.4199420
3066.7024000	11.3804060
3047.1807000	10.2422660
2953.2961000	19.2060920
2989.2384000	-3.6711604
2958.8009000	1.6112629
2951.8936000	-4.3085579
2906.4865000	33.8625370
2935.6973000	16.6459600
2878.5450000	-22.9235960
2905.0127000	37.1274150
2906.1237000	17.4313710
2830.8909000	-2.6797787
2851.5786000	27.4535450
2863.9057000	11.9631120
2855.5746000	31.0661610
2846.6160000	-2.7407672
2768.4955000	19.8462140
2834.2549000	6.1660760
2791.8610000	-20.9864410
2766.7111000	1.5664739
2760.8854000	33.2597840
2721.9182000	22.3838250
2715.8178000	8.8510162
2717.5708000	4.0877840
2722.8060000	4.7145861
2672.2120000	13.8201580
2657.3487000	8.1806595
2707.9383000	-2.7606588
2611.9846000	12.7942020
2647.7202000	34.2297100
2595.0917000	5.6588154
2574.6735000	13.0271930
2557.3880000	-15.4486970
2562.5213000	26.8433870
2555.2318000	-38.5551770
2557.5330000	17.2406370
2534.6294000	-35.8929720
2518.3199000	-27.5426790
2572.1118000	12.5595710
2495.6814000	9.2750372
2489.7056000	28.6419150
2524.3146000	-33.2516310
2444.7121000	11.6309390
2487.4208000	9.3247596
2488.4902000	27.4218130
2474.8204000	-38.2289790
2457.4908000	-29.8394320
2417.8677000	33.3089090
2433.5276000	-9.3421121
2376.1474000	5.3719124
2350.5225000	32.2962200
2403.9353000	-6.0190725
2388.4076000	-37.2437310
2338.1288000	-7.7989907
2323.7294000	-23.0059330
2289.5792000	35.2630330
2316.3743000	-21.0427400
2322.0690000	17.6871550
2290.5601000	-16.5604450
2251.4656000	43.6672360
2276.9193000	-0.6840747
2278.8710000	-19.6459250
2253.1495000	42.5245260
2259.7724000	-19.6034060
2208.6738000	30.1946890
2198.2610000	19.2638870
2249.5014000	40.7824820
2212.5219000	20.5173760
2154.7048000	-25.3455740
2205.9782000	-44.1825090
2173.1717000	27.0510660
2155.4028000	-18.6625880
2138.9778000	-37.1677220
2118.0644000	-2.3030582
2107.0780000	25.3123670
2127.9984000	-32.5415320
2125.8544000	-27.1819200
2141.8544000	4.5649910
2132.7427000	-3.3540524
2058.2913000	27.4329290
2060.0110000	-22.7313510
2102.5800000	31.0232680
2057.7583000	-15.3173200
2065.8567000	34.2216270
2036.5180000	-3.5200893
2036.0677000	18.9815440
1985.0627000	30.5057800
2035.1847000	34.7498230
2032.3857000	36.1411740
1957.9164000	-22.4549200
1970.5424000	24.5744170
1994.5785000	-32.0184740
1941.5560000	-15.3699690
1969.9167000	-42.6729560
1932.6494000	36.9725560
1920.3509000	16.8512740
1924.4939000	-1.6940758
1899.3442000	-26.2825660
1869.9554000	20.7536740
1921.1630000	-40.8629180
1857.4303000	3.1090446
1902.0109000	-12.4477550
1863.1236000	37.5452160
1823.9139000	-36.2671790
1855.7047000	11.1359790
1882.1887000	-10.3356400
1829.6813000	16.2551910
1858.2556000	21.9829630
1804.0681000	-35.0325420
1828.4006000	34.3738590
1780.7382000	40.5795900
1823.3005000	9.8133810
1776.7007000	-33.7913440
1780.8393000	-9.3368040
1752.7278000	36.1404630
1779.1658000	-19.7294570
1724.4681000	9.4489221
1744.5609000	33.3192430
1698.2405000	37.3571730
1727.0873000	6.2088241
1755.5277000	-5.4930136
1706.6422000	8.5515461
1663.7392000	31.8770200
1721.9933000	-35.2916380
1686.8018000	33.6670780
1705.6142000	-39.6280900
1669.4289000	-23.0774540
1670.5568000	-9.2126133
1645.8073000	-14.9653590
1613.5729000	-34.7996410
1612.3381000	-35.8107720
1653.2439000	-0.4137024
1607.9707000	-20.0721140
1648.1469000	-36.8965200
1630.6113000	-16.3605490
1589.8847000	-11.8122560
1599.3346000	-43.1490510
1555.9798000	-20.3889050
1549.5780000	-33.0973830
1557.3562000	-21.0760600
1531.7262000	-11.7785080
1530.7178000	42.1978070
1570.5550000	21.6496590
1512.2982000	14.0231040
1570.7170000	43.2973660
1561.7753000	-12.8030240
1558.7910000	-8.2151746
1482.8174000	-2.1064315
1507.2383000	22.4625370
1458.8778000	-22.4767660
1526.5834000	-7.5010915
1521.1124000	-36.2822070
1517.0020000	34.0838290
1441.2507000	-23.3728320
1455.2054000	-17.6647440
1440.3193000	14.0516390
1487.2196000	14.9621130
1409.3974000	14.0949490
1399.5924000	39.1396150
1467.6784000	-12.0047200
1413.2996000	29.9481990
1400.2119000	34.2976480
1369.4752000	-14.0723890
1420.1131000	-14.4334980
1397.6166000	37.6060200
1402.7382000	39.7431050
1387.5350000	31.4655390
1372.9962000	18.5262580
1341.2123000	36.1840680
1341.5419000	-33.7522360
1328.2255000	-27.0598840
1372.9019000	6.1457288
1363.4522000	23.6073820
1301.5385000	20.8463420
1310.3321000	-31.8055940
1300.3684000	-36.8295730
1303.4668000	35.6070870
1309.1580000	-31.0209110
1302.0253000	10.9723890
1323.3279000	-2.6525064
1318.1781000	-2.8929380
1310.2497000	-10.1546420
1291.1453000	-33.0528070
1285.5572000	21.7418650
1236.2869000	-33.8817070
1237.5582000	-13.2555060
1222.3750000	27.1221140
1253.0966000	39.8799420
1281.1700000	0.6168299
1214.2284000	-22.5322270
1196.3531000	-28.3286690
1219.4176000	-35.0742110
1262.5262000	42.9137760
1255.5096000	-32.4297430
1195.0079000	16.7736460
1178.7718000	8.5345537
1235.2117000	-39.1015400
1185.8856000	29.1303540
