jMRUI Data Textfile

Filename: dataset20_nWS.txt

PointsInDataset: 2048      
DatasetsInFile: 1         
SamplingInterval: 2.5E-1    
ZeroOrderPhase: 0E0       
BeginTime: 0E0       
TransmitterFrequency: 1.2322E8  
MagneticField: 2.9E0     
TypeOfNucleus: 0E0       
NameOfPatient: dataset20_nWS
DateOfExperiment: 
Spectrometer: 
AdditionalInfo: dataset20_nWS
SignalNames: dataset20_nWS.txt;


Signal and FFT
sig(real)	sig(imag)	fft(real)	fft(imag)
Signal 1 out of 1 in file
49888.8250000	38.8083390
49694.2010000	35.5341640
49441.1210000	34.3055460
49275.4290000	-32.8195200
49030.3650000	33.2725140
48756.0100000	-34.8967550
48570.7990000	-18.7078700
48331.6550000	-37.6438550
48126.5590000	-45.8698880
47819.9180000	36.1556020
47623.5180000	-20.7483930
47432.4520000	42.7937370
47150.1870000	5.6914769
46943.8440000	2.1608354
46730.5530000	-26.4961460
46496.7160000	-27.6490140
46322.5850000	-9.7480430
46079.5240000	35.9180470
45900.6490000	-19.1037670
45678.0290000	17.2364960
45418.8400000	-10.5042940
45255.1480000	-34.3036790
45035.7350000	-16.9049100
44848.2040000	16.3463540
44553.1920000	30.1547210
44403.0400000	16.8725680
44156.6970000	4.4174677
43971.1780000	-3.2274124
43783.4580000	38.8509860
43557.1720000	-37.2879100
43309.9730000	-3.9520959
43139.8180000	21.3097330
42926.5240000	22.3380720
42754.8030000	7.2494173
42503.9080000	8.8730484
42369.6610000	-29.5959200
42119.5350000	9.8157955
41923.8320000	7.4841588
41711.8210000	-28.5314050
41568.2820000	16.3240620
41320.7370000	45.3347340
41179.5440000	-4.2276934
40994.7860000	36.0931020
40788.2110000	-17.1586800
40539.6420000	-12.3784630
40397.4320000	-33.9956090
40223.8630000	21.3106730
40009.6810000	16.3435770
39859.3850000	8.8964033
39603.7980000	24.3021740
39478.2210000	0.1755184
39278.3640000	-40.0109990
39088.5660000	-21.9626450
38855.6270000	-7.2301845
38752.4910000	-31.7267450
38534.2890000	9.2871792
38382.2810000	-36.8939630
38157.9820000	14.9558270
38004.6500000	-10.1444330
37847.9200000	-24.2886510
37670.2440000	-35.0285100
37493.2700000	43.8384480
37317.3190000	19.3077020
37128.1540000	-33.8185600
36977.2900000	-27.7667420
36763.1590000	2.1798323
36608.3680000	-43.5374460
36396.1070000	6.0645786
36256.7610000	9.4058548
36045.7890000	31.8936460
35856.3230000	-14.2301570
35761.9470000	-40.8736760
35597.5420000	-33.9204410
35400.2350000	40.6039020
35238.3160000	-22.0292000
35096.9020000	14.0802850
34903.5360000	27.7239330
34749.7530000	20.9349550
34554.5940000	16.5289020
34441.7710000	-13.4933170
34226.8400000	24.3975790
34081.9470000	18.7257650
33968.4310000	25.8144440
33730.7830000	-9.4733699
33630.7520000	-21.2889450
33468.0110000	-3.9987351
33279.4420000	-36.6607740
33133.9050000	-44.8673140
32972.5280000	-43.7519130
32805.0030000	-16.7462770
32683.0430000	1.4923769
32559.1460000	5.4647142
32386.1560000	-13.5335180
32180.6810000	-0.4644605
32044.6290000	-22.3109960
31909.6090000	30.4573060
31797.8370000	-29.9041520
31651.9220000	-1.2656734
31439.9750000	14.4387630
31326.7110000	25.6504790
31183.6520000	-34.7572870
31058.1370000	46.6021580
30902.4600000	-21.8907920
30688.1540000	-13.1933340
30540.8170000	-4.7335037
30453.8190000	23.7320450
30275.6560000	20.1309310
30160.3690000	-39.7570720
29977.2830000	43.2832590
29834.2080000	17.2939570
29692.0540000	-40.5431270
29621.1890000	33.0836650
29457.4430000	20.4028960
29310.6050000	-22.1254160
29159.8740000	-14.9317760
29046.6370000	-15.1792810
28927.9720000	-40.5330210
28799.1490000	-26.4066070
28660.9510000	-1.6687846
28498.1710000	-19.2352620
28344.8170000	30.4984760
28215.3740000	32.0309910
28110.3160000	29.3170770
27924.5900000	-41.5242560
27875.3840000	31.6938670
27705.7120000	-2.6283662
27537.5980000	8.6742695
27405.0240000	22.2205270
27289.7160000	12.0248160
27177.0450000	28.3501870
27094.6400000	-7.2876016
26941.8350000	42.3435760
26834.7380000	-9.2522887
26664.9530000	31.2807160
26517.0270000	42.0741940
26468.6340000	11.2040180
26283.0460000	-41.4977690
26135.7960000	20.1042160
26031.1020000	-26.1829830
25941.8900000	-43.3199450
25778.1200000	46.9333270
25712.5030000	8.5892140
25551.5310000	41.8231380
25472.1300000	43.8283250
25315.8170000	-32.0655540
25229.2280000	0.4481586
25137.6390000	-16.5305300
25002.7560000	30.7707650
24829.7620000	-11.4933840
24779.0550000	41.3942950
24607.8110000	27.5445940
24510.1520000	-33.4993120
24390.8520000	20.1142180
24301.9560000	11.2655810
24203.6410000	29.1275570
24043.4710000	10.3334500
23941.1740000	3.1670214
23817.7790000	15.7864330
23715.7320000	32.7060940
23573.0130000	-37.4271960
23510.9220000	-9.5662663
23419.0590000	15.0244990
23243.5400000	-27.7402280
23124.3570000	-10.9575690
23071.0500000	26.7107940
22923.8210000	-19.5035260
22854.8990000	-39.2820770
22691.6480000	35.4122370
22619.1940000	11.5775350
22544.4790000	6.1708044
22391.6030000	-46.5366970
22320.6700000	18.6065500
22236.8320000	20.2507790
22059.3180000	22.8840720
21970.0970000	-36.6984860
21926.7700000	-34.2931230
21806.1310000	24.1823080
21668.7470000	-41.9766890
21535.6820000	-29.6600120
21513.5990000	19.1929270
21404.3890000	-11.4188800
21242.5730000	-9.0055343
21168.2240000	-30.3735320
21113.5960000	-14.3088960
20949.2800000	35.9000760
20874.7520000	32.2650880
20760.2060000	-2.4126569
20679.4830000	21.8747350
20631.0410000	16.2928800
20536.3510000	-29.7547240
20366.6600000	-15.0895110
20274.6940000	8.4451276
20226.1680000	41.5509610
20076.1430000	41.0489500
19993.4460000	22.3750080
19954.1820000	46.1382910
19788.4100000	-32.8772710
19736.1790000	38.2088740
19650.7590000	9.3422242
19581.0840000	8.4671728
19477.0230000	37.6871080
19335.6530000	-26.8630600
19316.3260000	29.9071680
19161.1990000	-42.1815300
19104.6900000	-21.6018850
18994.7250000	12.8422790
18943.4460000	-20.0351050
18803.8860000	-31.2644720
18774.8940000	-6.7288608
18682.5050000	-4.6994098
18539.2930000	35.9620200
18459.6160000	-20.3338680
18354.3070000	-28.7540140
18322.1530000	-39.8118510
18186.9190000	-41.0517480
18127.5890000	-12.3090460
18019.9830000	16.0297380
17982.2870000	-20.9611540
17852.6070000	32.4181920
17817.9580000	-8.8503597
17674.6930000	33.1369120
17650.0450000	-23.9628800
17565.3110000	-7.6492761
17427.5210000	-40.2685020
17379.1370000	-31.4852480
17304.5980000	9.3753232
17246.3010000	36.0827650
17154.0920000	-34.7524210
17068.9700000	20.7044450
16955.1850000	25.7603710
16892.6900000	35.1492930
16792.7410000	-7.5298422
16773.5620000	-41.2670090
16678.6880000	-15.2895940
16614.1930000	-8.3488777
16509.1750000	3.3610076
16419.4750000	11.7146290
16342.2900000	20.4783690
16287.6590000	28.4577670
16202.2250000	8.7153796
16147.6560000	-18.8586150
15994.5910000	46.3054910
15937.4450000	7.2456950
15897.7070000	-46.6091390
15797.6310000	38.2635050
15777.4770000	-41.4686590
15633.2560000	-8.5979050
15624.9740000	13.3359320
15558.8760000	-43.7889800
15488.2410000	6.4303062
15354.3320000	23.7234270
15291.9070000	38.4808530
15203.2130000	-14.0587420
15166.8380000	32.7927810
15080.1050000	-1.8761793
15041.9200000	-0.8457304
14914.4380000	-34.5546170
14881.4690000	-16.2216180
14802.7310000	-0.4728220
14724.5920000	-21.4156630
14687.5060000	36.5574460
14614.7630000	44.0590070
14547.4080000	38.5923680
14438.0960000	25.4248700
14411.4600000	-36.6537540
14280.4080000	11.4483340
14268.8410000	-21.2527810
14142.5010000	-44.7675740
14138.0240000	4.0844785
14032.9470000	-28.3759930
14019.4130000	41.2330970
13962.7340000	18.5780510
13868.1470000	-3.4166569
13816.7610000	-21.5602870
13691.8730000	-5.7138752
13676.5330000	-26.2179560
13624.0780000	41.2087400
13539.6830000	-0.4417884
13435.7640000	-11.4861250
13451.4970000	39.8989220
13354.2270000	13.5399470
13282.7560000	11.6943290
13231.4150000	-17.2974530
13192.7070000	2.6657355
13138.7350000	21.5897660
13011.6470000	38.7455780
13015.0160000	-2.8103884
12950.4280000	28.2338050
12833.7570000	11.9349430
12765.7590000	-34.4647610
12744.0650000	12.0854050
12671.8350000	11.8054760
12582.4530000	16.1459360
12534.5520000	6.3976369
12516.0300000	-35.0455680
12429.9300000	-6.9643573
12339.3620000	28.3064560
12338.9720000	39.1524980
12262.7870000	-27.3315100
12180.9330000	-1.6456673
12162.9460000	-23.3897850
12086.4470000	-38.1740830
12042.5570000	0.0342395
11973.1360000	9.9172749
11949.2520000	37.2129630
11824.2730000	-26.0338830
11765.9440000	-8.4772300
11782.3390000	-45.8080190
11711.8160000	-32.0050800
11618.7030000	41.7753220
11605.3930000	-7.4825214
11571.7490000	-11.1950270
11511.9320000	-14.7902460
11438.3280000	-1.4338564
11411.4430000	34.8026800
11340.9650000	30.9709000
11253.6830000	20.2284130
11201.1950000	-44.6474100
11160.5960000	20.2077750
11135.0790000	-9.0817567
11095.8690000	-38.9135960
11038.9370000	-2.7952519
10953.0670000	33.9803540
10895.1920000	-36.8246460
10884.6880000	-26.1014030
10837.9460000	-25.3326890
10702.0050000	-1.1307657
10650.6010000	18.0454380
10657.0040000	-3.8180859
10547.2000000	29.8713400
10506.5990000	30.4239790
10516.9910000	-32.5830320
10439.5170000	-3.7448676
10426.7910000	4.5762015
10360.7880000	45.4895450
10316.8250000	-37.9101730
10254.4420000	10.5815320
10242.8370000	-23.0699360
10179.5700000	16.6286320
10106.7460000	-36.7761580
10054.8850000	43.6775390
10015.0150000	27.2774860
9955.0974000	-0.0251656
9881.3567000	23.2000540
9852.8137000	31.3085560
9848.0475000	22.7244220
9780.7992000	7.9314836
9772.8642000	-33.5796310
9709.2476000	-39.6657860
9646.9258000	-39.0060160
9596.5427000	33.1317450
9584.5220000	0.7817514
9533.8235000	39.1946270
9473.4644000	11.7336960
9380.2039000	-20.6016460
9326.2489000	-3.6371850
9374.1671000	-39.5429950
9284.3965000	-20.3722490
9257.6834000	-38.7350670
9164.6440000	25.6791740
9118.9332000	-42.6684670
9126.8581000	-20.4098370
9024.5824000	41.9997590
8990.5113000	9.0962130
8944.2555000	20.6175200
8947.3710000	-12.8268060
8931.5486000	-5.6279704
8844.4643000	35.3964630
8818.1448000	-36.2527140
8732.3982000	-6.8411511
8767.0779000	44.9895230
8733.7411000	18.3779370
8666.1712000	42.5255150
8600.7013000	24.6493020
8539.6698000	21.4203260
8570.9797000	-8.9003993
8518.2808000	13.8574460
8405.0734000	-43.0421180
8415.0516000	7.7098997
8334.0019000	43.6219480
8300.7656000	14.5437290
8286.7302000	-18.5211700
8235.7777000	-34.5383200
8247.8032000	-18.2221280
8139.1004000	-41.1856570
8158.6252000	-26.8963120
8084.3477000	-30.1202050
8073.4504000	-42.2990900
8015.7261000	42.2140760
7948.5438000	36.2121770
7954.3469000	-23.9869840
7903.5750000	1.3182592
7837.5612000	-22.6291950
7863.1875000	41.7972000
7823.1849000	3.7903619
7773.1275000	45.6554670
7714.2376000	-4.7141781
7702.6662000	-22.7781680
7686.5255000	3.0203786
7648.9443000	8.0385606
7568.8077000	-40.6690940
7585.2941000	37.0581240
7487.2595000	1.3364341
7518.2824000	18.3332540
7460.0594000	-6.6950562
7388.4699000	-40.9584290
7341.6732000	29.9462640
7301.9123000	39.4712800
7344.6457000	19.8493660
7223.6008000	24.7931570
7212.6294000	21.8246600
7189.7991000	-4.0420847
7132.9455000	11.4561650
7145.9139000	18.0592020
7119.0433000	1.2536467
7087.6461000	1.9852430
7068.0654000	2.0853024
6985.1773000	-6.5976514
6939.1594000	4.9368011
6936.7857000	24.1672150
6879.4945000	-14.1637810
6848.1592000	7.5385273
6801.0159000	-14.5965070
6773.8051000	19.0867350
6746.4689000	-10.2593620
6752.6089000	-27.2181090
6675.9234000	20.6161290
6697.9732000	46.2338150
6683.4465000	34.5352350
6649.7701000	-21.1101470
6586.9240000	-30.3112000
6525.1026000	-7.1548381
6515.4775000	-3.7119025
6479.1759000	7.2482087
6478.1384000	41.6067360
6401.5560000	9.6000049
6374.4630000	-44.2213950
6401.9732000	42.0329730
6313.8440000	-28.3394800
6274.8566000	21.3573470
6312.3934000	-17.2012390
6215.4019000	6.2004590
6255.9215000	5.7705060
6206.0069000	-1.5247048
6185.2961000	21.9984130
6126.1011000	-39.9934880
6146.6055000	29.2032350
6105.5218000	-29.5174050
6066.3542000	-46.5974230
5973.5488000	-9.5401140
5996.3161000	44.9051010
5937.6019000	38.7594330
5911.4660000	-14.5778220
5876.4762000	-30.2333240
5894.4454000	-18.7780750
5883.5437000	11.0774170
5813.4795000	-30.8080630
5785.9159000	23.9864610
5760.0846000	37.1206590
5741.7447000	-24.4014260
5688.9859000	-41.2577370
5640.8830000	-1.5641702
5627.3657000	8.2975548
5600.0690000	42.3679460
5637.6583000	8.9708856
5555.0381000	31.7910230
5592.9001000	0.0216920
5493.5016000	-26.5085740
5544.2091000	-20.4431330
5476.4451000	-31.2031840
5420.0698000	-26.0126580
5396.2793000	-46.0619520
5360.2724000	34.4195720
5368.1256000	-36.9460020
5340.7844000	33.4533750
5349.0896000	33.1820940
5293.9630000	10.1546880
5280.0301000	-45.4067470
5279.3399000	44.3768160
5223.8280000	22.2778060
5211.1333000	42.1523310
5134.5016000	-2.6467378
5111.7018000	-29.9015950
5105.8041000	-27.6797650
5058.1488000	16.9693050
5057.6410000	-27.2196100
5018.5847000	0.4137355
5039.0200000	42.6305150
5050.6961000	7.7715891
4967.7155000	19.5013340
4949.9019000	4.9081257
4922.3358000	-19.9099740
4933.4368000	-38.1529290
4907.6475000	25.0642400
4866.6872000	-36.8390510
4864.1102000	44.3506910
4855.2954000	7.0301121
4821.4745000	-1.1176401
4760.8646000	0.8767825
4753.7922000	30.5442530
4733.9956000	26.5945150
4689.9368000	-22.9737470
4712.9365000	13.3346220
4689.5890000	17.9199850
4634.1049000	0.7463839
4652.3614000	3.9145030
4575.7167000	29.1728490
4565.9809000	-42.2796410
4529.6268000	43.6589430
4521.5409000	-15.4325350
4545.5309000	12.6270680
4522.6485000	-2.4316008
4464.8589000	-27.8041650
4473.7850000	-4.7346756
4393.5479000	43.9295900
4395.7346000	19.9192390
4373.3321000	15.7987950
4372.3736000	37.5926430
4314.8594000	-34.7200510
4366.4667000	-21.1834640
4290.0714000	5.7820526
4283.4977000	-15.1613200
4295.6393000	19.4282350
4263.7561000	1.0906536
4247.8531000	-9.0580979
4166.7551000	7.5117916
4160.9554000	-5.1982240
4165.0875000	9.9301936
4144.3850000	-10.4182020
4167.4156000	14.4957820
4103.7504000	6.6464709
4078.4152000	-36.1477520
4083.9676000	36.7758060
4078.8705000	24.3782170
4044.2052000	-7.2385569
3987.7226000	13.9301360
3988.6082000	11.7368290
3955.2426000	12.1839640
3937.2195000	-3.6767120
3924.6358000	43.4489420
3935.1919000	-37.6367500
3915.0722000	-43.8029310
3910.3172000	38.7232080
3835.7338000	42.1523320
3868.2952000	-27.0600110
3822.3493000	-17.3176510
3820.9238000	18.8043380
3808.0910000	28.9083320
3728.3042000	31.6312840
3721.8541000	-37.9303940
3710.6831000	37.6695910
3696.4904000	-23.5693850
3688.2041000	-26.8072120
3682.2899000	-31.2495690
3686.7707000	-33.4483950
3634.9918000	19.1127290
3649.1965000	45.5997420
3606.7885000	32.6375920
3644.7453000	16.5826440
3573.5794000	-35.5697800
3550.2168000	28.2864210
3549.5732000	28.2267150
3495.0969000	-8.6164072
3508.8981000	-38.0194820
3476.5312000	-10.2266280
3528.1527000	4.7189160
3481.9403000	-9.5636570
3488.4776000	-38.7049450
3420.5613000	34.4890800
3457.6669000	-31.5533790
3396.5190000	35.8700230
3354.1113000	-16.9788510
3375.5040000	26.4239980
3328.4202000	-2.8278689
3349.3543000	-12.9721550
3325.3741000	33.6807150
3272.8153000	30.6634910
3329.3465000	-29.2157010
3288.9873000	2.0231630
3302.0234000	26.7552500
3211.3252000	-42.0721800
3216.0071000	35.0507520
3175.0281000	-9.3191970
3210.8325000	30.5404590
3220.6957000	39.9208650
3164.3433000	-41.6669640
3135.0412000	31.5283930
3107.1029000	-30.0337770
3106.9134000	20.1844920
3074.1466000	-2.5456505
3122.0393000	-17.3086420
3108.4746000	-46.2501260
3024.8418000	-8.6371167
3015.3562000	2.7098034
2994.5763000	35.7705830
3000.4486000	-15.9737680
3009.5111000	-2.4570714
2985.6894000	-45.7840610
3009.1441000	-7.4711954
2949.7640000	4.3252658
2973.8517000	-32.4441440
2924.0948000	-10.0346380
2906.9237000	7.6799005
2874.8703000	26.4439140
2890.6475000	38.3077800
2872.1124000	46.8309840
2909.0695000	11.0096780
2823.7421000	-34.9961790
2883.6367000	-2.0694363
2858.5056000	4.8360088
2861.9205000	21.0472680
2816.9742000	36.6199550
2752.4779000	13.2039230
2734.1149000	-34.2387960
2764.2954000	-13.4258470
2771.1574000	36.4483680
2743.8042000	-39.1219670
2702.0254000	-4.0027832
2696.0198000	7.9938935
2735.2648000	-32.6303820
2649.2395000	-23.7555500
2704.0999000	-3.7972163
2661.6837000	-0.8830363
2645.6996000	39.4497260
2679.9832000	30.1253800
2647.8327000	-31.3245030
2604.9772000	-0.6040550
2567.9201000	9.3135437
2602.8190000	32.1751680
2575.7293000	-1.1677303
2520.1142000	-29.9190720
2554.6084000	32.8362450
2587.6256000	23.4149340
2575.3380000	35.7235290
2507.5202000	-22.7720460
2483.2959000	27.4147570
2520.9532000	-42.9429470
2468.6040000	33.0682590
2503.1803000	37.2683160
2500.6931000	-28.6688190
2446.4446000	18.8628530
2461.5513000	-7.3125895
2383.6319000	0.3471468
2404.7574000	38.5003650
2365.6376000	0.6541229
2358.3014000	12.0262700
2414.5880000	-8.5218025
2373.6860000	5.7408180
2339.4906000	-17.4995770
2316.2669000	-33.1845760
2371.9806000	1.3165006
2346.8635000	25.8119760
2347.0471000	15.2381510
2311.9678000	-4.9160536
2308.4521000	-44.7371220
2292.2928000	8.8685620
2258.1718000	-5.2913469
2232.9405000	13.3477020
2280.2165000	6.1195561
2219.6551000	44.5479570
2272.6392000	-35.7988460
2215.0362000	17.2753850
2182.2378000	-46.5779920
2237.4968000	-18.5053740
2203.1391000	18.2798330
2200.8100000	43.6526760
2128.1553000	43.5964070
2123.9609000	-26.1412120
2169.2878000	9.7879882
2161.1986000	-45.9454250
2170.7072000	35.5274240
2118.0169000	31.1188520
2141.2937000	46.8281250
2080.9838000	25.1442850
2056.3790000	-42.3143210
2043.9535000	-37.0607410
2100.4422000	-24.9075280
2077.1851000	-7.2984469
2053.2175000	-39.1800980
2062.2433000	18.4398770
1986.2581000	37.7460410
2058.8995000	-0.9106484
2027.1632000	24.4551810
2002.2321000	14.6626630
1988.7767000	27.0140890
2011.5693000	-43.3452170
2003.5287000	28.3049390
1990.9233000	-21.5741340
1945.0034000	-21.2681670
1981.4524000	-21.3578590
1893.7742000	0.1344053
1880.1742000	-41.0207950
1923.0416000	-21.5530710
1915.3281000	-0.2451290
1853.6772000	-9.2185387
1867.6046000	-11.8838140
1836.6424000	18.6330010
1824.6080000	11.6486320
1865.3487000	-5.5355981
1897.2547000	-41.0814900
1824.1386000	-28.6740500
1812.2048000	3.0524469
1838.6534000	-5.8323673
1840.4078000	-34.2050040
1843.4707000	43.2596220
1789.0709000	-28.0946520
1753.2454000	-27.5089460
1762.3703000	18.5556170
1818.9789000	-40.2193760
1722.5264000	32.1992060
1745.5547000	32.4146190
1726.9079000	23.6133100
1750.7692000	21.4752450
1713.4211000	-12.4892310
1724.2516000	-9.7914983
1701.6564000	-21.2250230
1750.4419000	-1.1282177
1704.8457000	-45.7734130
1650.5421000	-28.5307430
1732.1859000	40.3114300
1705.2347000	22.0277380
1663.7635000	26.8986910
1665.3368000	-22.6493480
1669.2502000	-43.1905680
1661.6911000	45.1529040
1679.1263000	27.7152650
1606.8129000	31.4483020
1617.2017000	43.4628130
1619.3007000	11.0715670
1577.9118000	13.5087410
1555.0935000	-5.6218945
1635.5279000	-7.2063562
1539.5413000	11.7601110
1589.5610000	-36.1529400
1563.8968000	39.0016860
1610.2272000	33.0488390
1569.7002000	17.7963200
1528.5817000	-3.1317006
1497.5818000	14.9997930
1541.5021000	-16.5464770
1552.0790000	-46.1310280
1526.5496000	14.6886480
1532.9742000	2.7809900
1531.7498000	12.2316630
1537.8969000	-23.0078400
1457.8310000	45.0099500
1498.3907000	44.1120970
1485.3747000	-2.1663686
1504.1516000	-28.6167620
1453.4226000	-13.0902570
1441.7991000	10.0468750
1434.4905000	-20.7719330
1417.9690000	-19.3251700
1425.2909000	-5.2788537
1431.7205000	-13.4660200
1384.4259000	44.6064580
1439.0754000	2.4585616
1416.1719000	-22.3281990
1445.3790000	-22.4345700
1443.2766000	6.8738996
1357.3592000	-36.6765150
1385.7985000	31.0710970
1408.5093000	8.4494118
1383.7409000	-7.5414085
1332.1771000	32.8165150
1358.0596000	-11.8139550
1352.7614000	-43.3827280
1333.1349000	-10.4233730
1342.8904000	-24.1796210
1324.2635000	5.6196892
1341.2754000	6.2906697
1353.9453000	-45.4350550
1320.3485000	-20.6959280
1319.7604000	-46.3838930
1322.6218000	-2.2882050
1333.4800000	7.5392315
1310.5009000	25.2594100
1258.0993000	31.5895980
1300.6396000	-46.3144330
1311.6573000	37.4202590
1245.9008000	12.4362310
1229.1072000	29.3569560
1221.7693000	-12.7158960
1277.7083000	17.2867650
1234.9037000	-30.5219480
1239.3549000	-4.6591755
1225.1528000	-17.4592020
1260.6988000	-22.5348570
1214.3339000	45.5865950
1195.9724000	-17.4582160
