jMRUI Data Textfile

Filename: dataset13_nWS.txt

PointsInDataset: 2048      
DatasetsInFile: 1         
SamplingInterval: 2.5E-1    
ZeroOrderPhase: 0E0       
BeginTime: 0E0       
TransmitterFrequency: 1.2322E8  
MagneticField: 2.9E0     
TypeOfNucleus: 0E0       
NameOfPatient: dataset13_nWS
DateOfExperiment: 
Spectrometer: 
AdditionalInfo: dataset13_nWS
SignalNames: dataset13_nWS.txt;


Signal and FFT
sig(real)	sig(imag)	fft(real)	fft(imag)
Signal 1 out of 1 in file
49941.4390000	-3.9448284
49753.7190000	-7.3872651
49532.7480000	33.8700400
49279.7300000	38.5065570
48916.3730000	78.6501040
48726.8410000	84.2514540
48595.1160000	72.4316090
48307.1340000	9.9085640
48004.2300000	84.4239270
47802.9160000	-54.3731040
47663.1650000	-65.1794180
47450.5420000	-66.5826520
47218.0570000	-25.6843120
46959.1380000	-54.3112590
46711.6360000	59.0481990
46547.3810000	-49.2824930
46252.6200000	-62.1071080
46032.4640000	-10.7748930
45820.7270000	-68.9321360
45724.2300000	-28.9009290
45483.6590000	-57.9517970
45233.1300000	-26.9532030
44942.8140000	-31.8995060
44812.4770000	35.0080750
44672.9680000	56.9298900
44437.6700000	48.0353130
44138.0200000	-43.1350670
43905.3330000	-61.1247480
43833.8610000	28.5620180
43587.0510000	-66.4153870
43403.3250000	-28.5857460
43156.7700000	-47.9996480
43007.9120000	-49.2197350
42714.6150000	29.8333560
42553.3280000	-44.2666350
42261.7180000	-64.5282590
42200.3110000	5.5825241
42017.5740000	-79.1613080
41802.6470000	-8.7984493
41567.8310000	16.8632850
41293.6210000	-70.3499990
41121.5270000	21.8413650
40936.9000000	-50.5276400
40713.5460000	-16.1474690
40497.1630000	-44.9768080
40414.2120000	-22.9137770
40155.0770000	26.7264900
40071.9120000	-38.2867580
39794.7440000	-58.3467020
39663.0380000	-29.8971190
39395.4420000	-34.6302450
39278.3140000	-64.3873840
39092.9210000	44.0151790
38976.8970000	38.1227020
38685.7780000	50.3944530
38529.8750000	45.9876780
38282.9760000	-58.5430030
38215.9420000	43.7281890
37989.1570000	31.5905030
37879.5260000	-54.6816070
37555.3040000	-76.0947210
37532.8890000	-29.6646920
37337.7950000	-31.9486900
37102.9720000	-61.7352930
36975.5410000	2.2011303
36765.8630000	32.0845200
36533.6580000	9.1620081
36429.4030000	-74.2061290
36324.5380000	33.4590740
35986.4260000	-17.7415850
35880.8840000	-2.3118810
35766.1250000	76.8147750
35623.3500000	29.6916600
35366.2520000	-68.0818380
35306.4630000	-46.9741940
34982.4520000	-52.9756770
34886.3780000	81.1410980
34690.5280000	-48.4009230
34575.6470000	1.1530051
34455.8160000	13.6947600
34215.2880000	84.0504750
34053.2760000	-49.5182980
33863.9300000	-24.0105730
33740.8400000	-9.6979367
33676.2380000	1.5487713
33493.4650000	16.4234280
33241.7530000	58.7203600
33218.7120000	-14.3548760
32915.2690000	81.1724670
32760.3290000	-15.9555730
32674.6440000	47.9543960
32535.1900000	-48.6610770
32301.7180000	68.3756840
32217.3810000	-70.7351040
32142.0380000	35.7691260
31877.0010000	-69.5591420
31781.5670000	26.2240610
31619.0500000	35.3876350
31443.8030000	15.9564920
31330.8090000	-37.3458280
31110.9860000	-40.2338340
30978.5500000	-36.3724370
30809.1820000	-5.9815250
30696.6250000	-60.1559440
30539.8780000	32.7058470
30436.5310000	-50.3500270
30363.9420000	-35.5993660
30086.9880000	-7.5702725
29941.9170000	-11.2986430
29943.2930000	-76.2195460
29714.8030000	-34.0931460
29616.7130000	-12.5102250
29452.3920000	34.9444250
29291.3820000	-59.0696110
29180.3360000	-83.1245230
29124.0000000	-60.6555840
28828.3390000	34.2398770
28788.2560000	-52.5633600
28696.9950000	-4.9390202
28490.1650000	-64.0692770
28441.5270000	32.7828780
28193.3780000	59.6708720
28023.9290000	-56.9731820
27892.0910000	22.9812590
27788.2440000	-28.8395360
27782.5220000	42.2888810
27554.9290000	77.8862790
27519.1170000	-18.0740930
27241.4270000	-73.2748350
27135.8450000	15.7621650
26997.8330000	-26.6579600
26942.0120000	68.3027270
26755.6910000	-26.6999230
26706.0820000	60.8731190
26591.0490000	67.8622490
26507.9760000	60.1823320
26260.9570000	18.1793480
26133.0290000	39.2247190
26017.2690000	-26.1135880
25868.7360000	64.8036880
25829.8200000	47.7916150
25633.7900000	-61.2788820
25539.0780000	5.6147118
25482.2280000	66.9996480
25263.2530000	-81.9339020
25197.7030000	-6.1651604
25051.8270000	71.0900640
25048.8770000	-0.4410609
24913.7360000	64.6288280
24731.0130000	-7.1709558
24648.0080000	-22.9700470
24540.7880000	-39.1464650
24442.1230000	-57.9249480
24271.7480000	72.2365910
24099.6650000	77.2098920
23978.5160000	-30.1082980
23888.2860000	8.0048989
23785.5070000	-38.4641800
23794.3610000	-23.4276600
23536.2250000	39.3892890
23467.3220000	-85.2545460
23369.5260000	80.4174480
23342.6050000	22.1337420
23174.5140000	-58.3508360
23101.0180000	18.2789640
22987.3610000	11.5665380
22910.4770000	3.2682335
22807.2960000	-66.0389880
22663.9900000	46.7014430
22491.6130000	-73.8604240
22407.7050000	-5.1040177
22375.7850000	-47.4841110
22164.7550000	32.2664680
22153.7040000	-21.3931990
21931.6530000	44.3773150
21927.5830000	57.2153340
21719.1350000	40.9125160
21653.6820000	-36.7678960
21535.4700000	48.5389000
21433.6480000	-30.4936430
21411.9930000	84.5130760
21345.0170000	-75.4843370
21115.0810000	67.5833370
21115.0970000	66.3290070
20977.5740000	42.8638500
20949.1920000	-83.6228920
20781.3210000	-10.4432780
20658.1360000	-53.4559230
20643.0370000	-76.2025460
20444.3910000	70.8325550
20419.8720000	71.7758270
20223.2710000	38.2018610
20168.5620000	-12.2102340
20172.9650000	-65.5744610
20098.5780000	12.7855830
19911.6450000	-69.1989030
19812.0550000	7.4830962
19743.7120000	-51.3595940
19713.9100000	-84.1717480
19507.6510000	77.2065670
19464.2600000	41.0190270
19331.7550000	42.2663050
19267.0980000	9.1960846
19227.4220000	-53.9193160
19050.5290000	55.5171020
19058.2350000	-76.5673100
18979.6050000	-36.4982470
18818.2370000	83.7841550
18792.9100000	-34.1712620
18685.3720000	4.6260218
18516.8650000	67.7850450
18396.6450000	78.6547680
18302.6540000	-3.8886088
18225.0910000	72.8056480
18137.5960000	-21.7542630
18102.2710000	6.4551877
18110.1100000	-77.8490610
17999.4680000	-76.6962810
17848.9480000	-44.2528530
17730.5500000	24.5612600
17686.7330000	-57.7186090
17665.9430000	-68.4931250
17462.6500000	41.8975740
17379.0490000	57.3262520
17395.9070000	62.5132890
17215.3900000	-33.9903090
17132.8930000	-32.0180510
17177.5220000	-10.8859210
17085.3500000	-42.3316540
16922.9520000	-63.7895050
16942.4380000	67.5879690
16791.0160000	-19.0733050
16768.8210000	75.9652600
16699.2960000	-78.4707430
16616.2600000	-17.3117370
16515.1310000	-36.7247970
16342.4630000	51.5062760
16373.4080000	-18.2447110
16310.2960000	-61.2185990
16249.0150000	11.3452160
16030.3890000	-35.4406450
16061.3320000	-74.2635870
15949.4950000	-45.3247020
15822.0700000	9.8374758
15744.2530000	-57.9172550
15693.9000000	34.1470840
15664.3950000	24.5216720
15660.6060000	17.2608460
15480.7270000	-82.1611420
15476.7940000	57.4414220
15453.1220000	29.2777870
15329.4170000	54.2796340
15163.0670000	47.6109200
15215.0050000	-51.9649710
15166.4320000	12.8967190
14965.9940000	-52.6030930
14921.6510000	-3.9861970
14867.5270000	85.1631400
14759.3890000	61.6200560
14725.4950000	62.2584050
14690.3480000	-1.2036473
14655.3590000	44.5519630
14556.4420000	-29.2086020
14406.4460000	50.8910320
14405.4810000	1.7464828
14377.0360000	-11.4638870
14205.5980000	-32.4561950
14225.0420000	24.4106830
14137.3680000	-74.7269980
13980.4780000	11.5884560
13993.0990000	-35.4299790
13846.3660000	-81.4087510
13939.1090000	-74.9237200
13787.6120000	-9.3399123
13762.9080000	-4.0877708
13663.2450000	-47.6627690
13617.2820000	-20.3443620
13532.7940000	-77.4818370
13481.9730000	-74.7535870
13348.1180000	-35.0752610
13278.0500000	-20.5941950
13250.6620000	-4.6567494
13228.9270000	40.7577390
13222.9180000	9.4393133
13025.7120000	68.2858210
13053.5110000	16.1404260
12969.1610000	78.0027680
12916.6150000	-55.1577430
12841.4910000	25.6878940
12820.4470000	32.9765120
12691.0820000	-42.2897670
12676.4580000	34.7383640
12592.0670000	22.6612240
12637.4550000	15.7585470
12443.1530000	33.2011760
12377.4080000	59.7554350
12438.5110000	-43.4542440
12388.5510000	47.0036910
12300.1480000	-36.9007140
12240.1220000	-11.7480810
12174.3480000	-77.4596710
12131.4490000	19.7010570
12032.7300000	-42.6150530
12060.0160000	77.6966020
11973.6020000	-25.0690100
11816.6710000	-73.5462390
11792.0920000	63.0037400
11830.4050000	-51.6949780
11648.7130000	38.2062060
11566.0120000	49.0615320
11528.6210000	67.9899150
11521.3420000	-27.9046220
11472.0480000	16.6827150
11423.1140000	-76.5582130
11451.6950000	-54.5364820
11314.6090000	9.7317772
11260.0250000	79.8443430
11140.8930000	40.9512480
11236.1630000	-18.2823410
11111.9100000	-20.1565180
11098.4270000	16.3031170
10920.1620000	63.0133830
11017.8070000	72.1982460
10813.8630000	51.3267740
10885.9050000	57.1612220
10823.9330000	50.9254180
10742.6540000	51.8038900
10611.7730000	-66.8806610
10611.6720000	-45.6054790
10530.0060000	28.2334460
10617.6820000	32.3100610
10538.4390000	-58.8213220
10374.6020000	-73.4440060
10319.5090000	-58.8875440
10376.3610000	2.1308489
10322.1290000	12.5591550
10263.4660000	-4.4135138
10133.5680000	-23.6701270
10095.1750000	-63.0019360
10020.7380000	-55.0799780
10143.5410000	55.4963850
9962.6277000	-74.8724550
9898.8750000	-37.3933470
9920.2062000	18.9642780
9893.1360000	37.1428980
9767.8841000	-41.8206720
9740.5164000	66.5107630
9718.9355000	25.4558150
9735.9598000	-3.9037439
9608.9466000	64.2779480
9603.8426000	-26.1096010
9607.0170000	26.9943790
9586.9674000	78.3878130
9379.6445000	-26.6464510
9394.2525000	-66.7399300
9341.4144000	3.6663144
9334.4158000	-42.3438890
9289.8954000	7.2334746
9202.7561000	-80.2203370
9267.5567000	14.1323770
9164.8669000	42.0897860
9072.7085000	25.1411830
9003.3518000	84.9900650
8956.1117000	73.5284470
8974.4788000	57.4536950
8863.1402000	65.8606780
8896.5823000	15.0019850
8827.3800000	19.8885170
8879.1920000	32.8095010
8699.9301000	-47.5745040
8682.9868000	54.7736590
8717.4627000	-57.8051440
8653.5706000	-66.3912550
8567.5631000	67.7279110
8486.4636000	82.4160710
8530.3367000	63.5244530
8547.7770000	-53.6813770
8485.0874000	59.9237610
8462.3260000	69.6137390
8388.8300000	-42.9907510
8296.1138000	-23.1746500
8335.2689000	70.7562830
8257.2213000	29.5250890
8270.8021000	-9.0734985
8220.0014000	8.2297004
8059.2846000	33.0574280
8128.6105000	24.3784020
8073.2769000	-81.3916400
8031.3357000	69.9038950
7978.7994000	72.4724060
7967.3140000	-0.7268343
7892.4250000	23.6578760
7865.6351000	17.6798150
7841.1363000	75.8271570
7849.5529000	-62.2940030
7817.8354000	64.0632490
7802.3917000	-76.9165750
7728.7752000	-50.6222840
7598.1853000	32.1881580
7531.6746000	16.6328380
7573.4470000	31.3789300
7488.2998000	-78.6710010
7495.4184000	22.6940390
7510.1794000	-48.4355830
7508.2769000	-6.7786737
7346.1221000	33.9988120
7401.2177000	43.8411020
7357.0895000	1.2137760
7309.4743000	40.2413540
7276.6923000	42.6577890
7202.3546000	-51.6732130
7173.3931000	55.4650530
7187.8291000	-69.2674880
7168.1556000	68.6936540
7118.7771000	-68.4764610
7080.6870000	76.3420160
7114.7555000	-35.8324870
7043.5632000	-40.3281550
6922.8728000	16.0384450
6868.5842000	51.0916620
6906.8636000	64.8366860
6839.6222000	-81.3720380
6847.8918000	68.2625110
6868.0750000	-34.6050050
6835.8994000	-85.4077340
6733.8411000	-47.5599340
6782.9429000	-63.8413070
6675.1228000	68.6741730
6599.6466000	-17.0527820
6528.5734000	69.0023700
6501.7051000	-66.2960370
6504.4923000	-31.3851500
6499.0214000	75.8158410
6488.8100000	53.7680900
6455.1177000	44.1263170
6494.9855000	-43.0302050
6398.2769000	85.5216500
6433.3431000	39.4447020
6407.2437000	77.3001970
6238.8977000	-64.2277220
6202.7771000	14.7398010
6194.2146000	-26.3870410
6273.9352000	-60.8078090
6250.6982000	-50.2428440
6227.3380000	11.0685310
6096.5697000	45.3163430
6138.9659000	-53.7039440
6066.2528000	29.0530290
5966.8577000	-24.9535130
6002.4140000	2.7311293
5969.4729000	-39.6408150
5879.7624000	68.6829430
5960.9668000	48.4175880
5828.6011000	-66.4774510
5828.6897000	-80.5110040
5791.5837000	-66.9147130
5835.7895000	18.3924740
5743.6180000	-84.4372400
5800.0498000	73.8906650
5712.7581000	-6.5831630
5798.2451000	-85.3901470
5661.6027000	-29.1350950
5688.0635000	22.0458240
5693.0650000	-15.7466500
5630.1221000	66.2965340
5665.3652000	-46.1292950
5519.7697000	-32.8335040
5579.3714000	70.0642240
5418.0680000	22.9063120
5537.0463000	11.8478280
5487.9358000	66.9996660
5416.3352000	-15.9403050
5331.6091000	-25.3730280
5308.3873000	74.2423150
5350.0289000	64.8184220
5371.3545000	71.3551090
5246.5050000	-11.9482250
5337.9631000	22.1955380
5225.8827000	-60.7441960
5287.4120000	15.1595790
5278.0025000	-44.0991520
5125.3282000	-12.0252350
5086.6572000	3.0145259
5115.7907000	11.4605840
5180.6180000	27.9771020
5109.8920000	31.8114760
5034.8749000	72.3695340
5083.2177000	-13.0860410
4976.5841000	-4.0557711
5065.3564000	-44.9345400
5029.7169000	-51.1346400
4985.8884000	-1.7443961
4839.5265000	-56.5846610
4911.7912000	25.2761570
4844.1886000	53.7888950
4795.6839000	-78.7323630
4794.2205000	-75.8081170
4751.9517000	-76.4722150
4737.0568000	-81.1602740
4778.0521000	-77.3620720
4816.1780000	28.3326530
4731.4369000	43.6434280
4717.7351000	-5.7734393
4650.9570000	-1.1382925
4694.5220000	-8.8722493
4650.3154000	61.8400600
4563.4522000	-76.3415680
4550.0612000	2.5845636
4563.8935000	-24.9298210
4495.2545000	-7.3651059
4454.8903000	54.5474720
4559.1932000	10.4110860
4387.4861000	63.0877330
4523.2242000	77.7594920
4429.9840000	75.6090770
4422.4740000	77.4134920
4346.5965000	17.1314060
4415.1160000	47.4396270
4379.0359000	79.8063260
4406.7866000	78.4546420
4323.9009000	-1.7278678
4227.2530000	-51.7757660
4272.9249000	-80.3380290
4297.3579000	-64.5105890
4298.7328000	-8.8273987
4198.6321000	-33.5933910
4162.9026000	68.2138830
4138.9695000	-25.4999770
4165.5204000	-59.7495550
4119.4244000	45.4393240
4096.2764000	-80.2317190
4172.1688000	71.9897590
4084.4377000	-75.8545840
4130.5738000	42.3151920
3991.0601000	10.3032420
3932.2593000	46.3610250
3962.8883000	71.3163170
3984.3631000	-48.1211950
3979.0190000	79.2857970
3928.0604000	-74.0456610
3863.6080000	-68.6795050
3897.9771000	37.5047030
3875.6370000	4.2200105
3930.1618000	25.5765740
3896.8104000	-16.0196550
3779.0353000	-1.5173414
3842.0844000	44.3731820
3778.6611000	75.0483050
3849.1360000	-47.5340670
3800.7465000	4.7092808
3664.9075000	64.2487540
3638.5373000	-34.8692850
3746.0479000	-39.7170950
3630.1397000	41.7999830
3587.4424000	34.2938220
3666.9672000	-8.4425195
3695.9382000	76.9184170
3673.7800000	68.1246490
3612.1979000	-34.3706580
3505.2631000	53.2297130
3531.0441000	-64.9015340
3539.4022000	-58.1065330
3565.1916000	60.5808450
3453.2435000	16.2732240
3521.8664000	49.9237540
3494.5569000	6.6239051
3528.8127000	63.0344960
3449.5623000	-43.6479700
3517.7822000	18.1208500
3442.1183000	72.1034190
3390.6504000	54.2778710
3351.8074000	-18.2385190
3360.5782000	36.1845550
3383.5588000	36.7504470
3281.4657000	22.0309070
3299.8568000	-13.2932590
3371.8343000	-38.2147240
3329.8249000	55.4754200
3279.9214000	82.7395350
3326.5534000	74.4238920
3230.3227000	-8.2523775
3254.2502000	-14.2323690
3228.1887000	-74.7918890
3213.3213000	-63.3205530
3227.8411000	-21.2365920
3164.5132000	43.8891360
3229.1658000	55.8968730
3067.5550000	-76.3490540
3140.8871000	-5.7113995
3144.3134000	-28.0973780
3114.8546000	-77.9249270
3157.5138000	-46.4994310
3143.2328000	54.3896560
3000.5136000	29.9892730
3048.1853000	-15.2927580
2998.3926000	78.6868370
2958.2654000	-3.8617138
3007.1867000	70.3858080
2945.0172000	30.6548620
3038.4159000	-77.1750310
2885.1226000	-23.6846290
2877.1908000	79.4795480
2924.2364000	76.3324630
2861.6685000	51.6668280
2964.8980000	80.1265890
2898.9988000	15.3203610
2849.0475000	-49.6659490
2780.9041000	-33.3155770
2767.7926000	81.2858530
2916.9183000	-79.2320760
2868.7323000	-48.5992490
2832.6362000	80.5118150
2791.6285000	67.4541400
2787.7425000	71.9398090
2839.1216000	-75.4494830
2818.8642000	-38.3030860
2790.1678000	-12.2343190
2735.1249000	-65.3612210
2724.4086000	-68.7195670
2663.9732000	-46.1336760
2749.7840000	54.6892550
2687.1338000	44.0433600
2702.1128000	-53.3845730
2708.3445000	-50.0147020
2695.0316000	-28.1975500
2671.4059000	-22.7849460
2628.6647000	-73.5978600
2543.0641000	-18.3053540
2572.5098000	-79.6474190
2491.6442000	-36.7699980
2494.3609000	-6.1339521
2568.7242000	-0.7707166
2547.3478000	72.6174910
2478.8879000	30.0518620
2508.0712000	83.5373900
2503.2039000	39.8139350
2511.6491000	-74.8773790
2430.3316000	-40.5631340
2525.6463000	65.7207770
2420.5965000	-16.4334930
2527.7349000	28.4959970
2493.2299000	-24.7800860
2357.4044000	51.2967690
2433.3027000	79.0345340
2417.7668000	-39.7469750
2402.7457000	17.4843560
2360.8601000	-26.0903090
2428.9358000	-30.8741180
2337.8565000	-59.7770740
2333.2359000	18.2692220
2387.6241000	-34.1254600
2265.2112000	9.1514492
2298.1739000	-4.6810660
2374.0999000	38.1033600
2238.7715000	-62.4222100
2311.6814000	-11.4080150
2313.2483000	49.1048590
2206.2329000	-19.7484240
2191.6598000	-76.7982280
2209.6923000	-70.7565650
2232.0429000	-52.9924830
2269.9037000	-41.0388560
2213.3301000	75.1424240
2142.9804000	25.2252270
2214.9835000	20.5160810
2250.4895000	51.7127930
2124.8997000	78.7857280
2162.7175000	43.5205070
2139.2028000	-46.8530500
2170.2271000	39.1153040
2114.2683000	-77.1414750
2063.9481000	-29.1949500
2042.9651000	-77.6790230
2107.6821000	81.3210330
2075.5760000	10.4352250
2046.3333000	-19.5170380
2149.6913000	63.8497190
2111.0667000	51.4934820
2110.4573000	-48.6665690
1954.6246000	-79.8473200
2062.8532000	-31.0604060
2001.8018000	36.1370870
1976.4986000	68.8562610
2023.3994000	5.4519176
2020.4623000	-75.8928160
1994.6489000	-5.1268091
2004.1889000	0.6585815
2014.7732000	-29.3392680
1985.7291000	19.5613170
2019.8996000	56.8387170
1895.6234000	-3.4512369
1845.4705000	17.1489870
1900.9425000	22.4059120
1829.2581000	61.7524700
1838.9491000	13.5522520
1917.2333000	-54.0475410
1939.5571000	19.6500020
1941.0811000	53.6933090
1809.1272000	-36.8993690
1936.0792000	-53.6224340
1833.1602000	-14.8854310
1796.9052000	81.4123510
1860.6411000	42.5465430
1775.0833000	-23.4206130
1732.6815000	46.4224270
1745.7982000	-42.0400220
1872.7271000	-7.6416467
1766.6776000	-44.1262100
1718.2736000	63.3645900
1794.6109000	-15.4716430
1694.2111000	0.2198663
1809.2965000	8.2233469
1739.7047000	82.0879870
1679.8813000	63.8303860
1678.9244000	46.3283920
1734.0475000	76.3445710
1651.5940000	-55.1566610
1679.6625000	-7.6345827
1631.0107000	-27.6731640
1761.6592000	67.6373270
1757.1665000	48.9209610
1604.9867000	31.3277150
1631.0556000	-64.6059580
1639.0396000	-37.1640700
1591.7146000	21.2601250
1647.9745000	68.3546510
1668.6358000	42.1427760
1698.7554000	-27.7730630
1622.5317000	47.5334600
1626.1459000	-54.8311490
1549.2731000	-54.0272470
1537.6466000	78.0775850
1524.1853000	-47.3384990
1594.2241000	-70.2003590
1488.1472000	58.9768810
1551.9982000	17.9187550
1641.6930000	-46.1585240
1576.3498000	-43.0154020
1619.8990000	26.8474360
1520.0950000	39.2358620
1491.2086000	77.2328790
1505.1941000	38.5285910
1514.8782000	83.9460840
1577.5669000	62.3649600
1444.8402000	-11.1012840
1439.3891000	-28.1543580
1488.1220000	54.4441750
1479.9974000	38.9014770
1408.5436000	-26.6890770
1464.3434000	-17.3500820
1432.3138000	-17.9447060
1529.2480000	24.7680490
1523.6347000	-10.2050450
1419.9776000	55.3725370
1350.5315000	11.0217050
1382.5506000	-84.2479570
1336.4449000	-81.6968630
1457.3932000	-2.0091076
1333.0027000	58.7460570
1327.9486000	52.9565160
1388.7162000	-52.7424260
1337.5077000	-15.6805120
1408.4485000	29.1354670
1311.9514000	-18.3985550
1368.3658000	-7.5707029
1403.4439000	61.1666260
1345.5376000	63.4491250
1333.8293000	-4.5799245
1283.0411000	-29.8461400
1305.3752000	-2.9196840
1352.4993000	-79.4209260
1403.3914000	52.4649990
1248.1888000	-62.8004200
1378.5246000	48.9206100
1239.2840000	-46.5374330
1331.9067000	-75.5052060
1239.1637000	57.6676380
1218.6550000	14.0593830
1331.3560000	42.8286790
1243.1264000	-26.7584500
1188.2809000	-19.3118630
1309.5344000	-43.4949550
1290.8629000	56.8930220
1330.5072000	-56.9611110
1215.4122000	-76.5190780
1291.0885000	-11.7643860
