jMRUI Data Textfile

Filename: dataset18_nWS.txt

PointsInDataset: 2048      
DatasetsInFile: 1         
SamplingInterval: 2.5E-1    
ZeroOrderPhase: 0E0       
BeginTime: 0E0       
TransmitterFrequency: 1.2322E8  
MagneticField: 2.9E0     
TypeOfNucleus: 0E0       
NameOfPatient: dataset18_nWS
DateOfExperiment: 
Spectrometer: 
AdditionalInfo: dataset18_nWS
SignalNames: dataset18_nWS.txt;


Signal and FFT
sig(real)	sig(imag)	fft(real)	fft(imag)
Signal 1 out of 1 in file
49955.2470000	-30.1061790
49737.6710000	-34.2188520
49435.0640000	-41.4027960
49242.6490000	33.4120540
48969.7830000	-20.9780810
48752.3590000	-3.5761323
48582.5030000	-37.4311840
48302.8200000	-33.3540260
48040.9030000	-31.4413600
47889.2600000	-43.3799760
47642.9840000	21.3746960
47363.9160000	21.3740110
47162.7560000	-14.4195240
46927.8070000	39.7413320
46748.3580000	-38.6469760
46532.4240000	45.7177540
46301.8960000	-17.4338260
46106.0450000	-28.5875760
45840.9480000	-19.2114960
45674.1810000	26.4001520
45453.1470000	32.7787440
45249.6380000	-35.4792090
45031.4700000	-8.6400506
44818.8160000	-23.1538290
44548.8700000	-10.5905670
44409.6450000	10.0475210
44214.6610000	-23.8424090
43995.9440000	-6.4298172
43794.3790000	-30.4992780
43572.9890000	10.9993030
43342.5650000	25.1777180
43147.3450000	-27.3005930
42970.9670000	11.8778340
42785.3740000	17.9767510
42545.0950000	13.0747020
42316.1560000	-20.4072890
42114.3340000	19.0374800
41901.0550000	-25.0181490
41763.4510000	1.1387574
41537.4420000	-31.1206590
41338.6170000	-29.3771920
41192.9520000	-40.2202080
40956.6550000	-21.5988410
40798.9330000	34.4634370
40619.0750000	27.8250380
40351.4010000	37.6087550
40208.0580000	45.1013040
40012.3540000	1.0563319
39862.7160000	25.2416410
39600.4860000	26.7368710
39405.2740000	45.6325410
39281.3180000	38.5050820
39110.3590000	-1.0427826
38914.3970000	-3.7369817
38710.2040000	-43.8326510
38577.5620000	15.3083180
38336.6510000	-45.6886950
38144.4260000	5.6916231
37943.7320000	-38.8498120
37786.2650000	-11.2736590
37675.8690000	-36.0798780
37458.0690000	46.2145100
37296.9520000	19.0091600
37099.5200000	-22.3047810
36922.0180000	9.0433846
36801.6660000	-14.6676170
36567.1650000	-1.6996260
36372.0680000	-24.1943880
36277.5480000	-38.4295600
36083.8200000	6.9081460
35919.1050000	16.9801210
35739.2000000	-9.7160740
35521.4730000	0.8865242
35439.0260000	7.2531480
35206.4070000	40.2735630
35074.1100000	-17.5722210
34923.1110000	-17.2855240
34722.4520000	-29.7705040
34533.9990000	-17.9986140
34414.7140000	1.9525694
34224.4350000	19.0589060
34110.1470000	35.5185830
33884.2670000	30.7987290
33807.1740000	19.6479570
33574.6950000	-44.4199020
33424.5590000	-17.0321010
33250.6440000	-41.5041470
33109.2130000	22.1105620
32961.8350000	26.1346500
32798.8300000	-35.4849250
32699.7800000	44.9876840
32508.1830000	-27.9769620
32390.1310000	-6.1442066
32169.2100000	-17.0914730
32027.2430000	-0.3258060
31923.6720000	-36.1556950
31800.0260000	3.9294385
31650.0170000	-32.5424770
31482.4250000	-5.9805874
31324.4780000	-6.1480547
31145.0660000	2.1590610
31068.4130000	-6.4100603
30865.0930000	30.0874760
30745.6690000	-23.8897500
30599.7550000	2.7094625
30401.3620000	-37.7986570
30340.0140000	-30.0298200
30169.2790000	-18.2077650
30022.4310000	18.5801880
29903.2810000	-18.2330700
29689.2240000	19.5013880
29562.7630000	5.7447787
29463.7080000	-6.5875425
29321.2710000	23.5738200
29182.1330000	-25.4150320
29054.4160000	-36.0225550
28951.3200000	-32.1226140
28772.0470000	40.9988540
28652.8580000	-19.4654290
28542.4420000	32.6652780
28320.7560000	-29.3892390
28254.4760000	22.4637190
28140.9100000	23.4666680
27966.3090000	24.0450690
27825.3690000	-37.4203210
27662.1260000	-6.0316675
27589.6280000	-35.2799820
27489.4670000	37.2955350
27304.8590000	45.5612020
27214.0150000	-16.3361540
27023.2180000	28.5193410
26901.6950000	34.9491750
26795.9510000	26.7843970
26639.6040000	7.7791839
26541.6290000	30.2995770
26463.5370000	2.5919800
26264.8050000	-29.5373330
26182.7570000	20.7351770
26011.5730000	-3.2498380
25897.2720000	-36.6756260
25820.5520000	-20.1377330
25723.8740000	22.0521150
25618.6020000	-46.8500710
25436.9030000	-27.1823980
25331.2250000	40.9386060
25220.3940000	15.6780970
25109.0720000	-27.1704250
24941.4390000	40.8604960
24854.1350000	37.4403170
24757.6290000	36.2425900
24622.6870000	-41.2444000
24555.8710000	1.0371305
24361.9890000	-9.4501024
24281.7550000	0.4031522
24136.8880000	-11.7634980
24088.5390000	-4.1577529
23983.7480000	14.0539220
23798.7990000	-24.2036570
23725.0800000	-9.6468490
23593.3840000	-18.3489520
23515.1550000	-33.7957600
23353.8360000	12.9713920
23244.2200000	31.2418260
23118.3140000	-9.8259285
23016.3450000	-15.0289120
22972.7970000	-17.4491020
22821.6650000	15.4198730
22689.9070000	-6.8318451
22584.2380000	-9.0500864
22510.7730000	-16.1840110
22363.8440000	15.8679690
22340.2820000	5.7105997
22230.9100000	-45.8926160
22135.7800000	-19.1579520
22012.4890000	7.6019746
21865.9700000	43.4006380
21810.1730000	33.3896170
21650.5390000	-7.4466774
21576.7690000	36.7530180
21458.9460000	6.6831784
21391.9010000	37.6033290
21251.6620000	17.9329230
21216.3990000	10.2648560
21099.5660000	-3.1894753
20962.2740000	-43.4041720
20913.3850000	38.3265590
20824.1970000	-8.5092293
20713.6920000	-9.9796230
20541.7490000	0.3397774
20458.9360000	37.8816940
20430.1690000	-27.7997040
20276.6660000	18.4472240
20189.8490000	-42.7301420
20087.2890000	33.7342390
19969.2040000	-16.6232340
19903.7830000	22.9258350
19853.3610000	10.9583290
19705.9620000	-15.0656190
19625.4340000	25.0189150
19542.8890000	-15.0657280
19421.5430000	13.6630870
19404.4700000	-19.7318740
19244.1730000	21.7682160
19164.9950000	20.1559750
19116.6620000	-21.2204330
18997.8260000	1.4333545
18957.8450000	12.2246690
18780.2210000	3.3835243
18723.0770000	17.6575570
18637.6190000	-13.5373950
18531.8370000	-32.0523470
18483.5700000	16.5514110
18417.5890000	27.9038150
18277.8940000	43.3973900
18169.5380000	-3.7135904
18171.5200000	-31.0311510
18049.6960000	10.4401850
17967.5350000	14.2887120
17866.8180000	20.2092420
17787.5750000	-38.3076110
17695.2840000	12.4735480
17591.3550000	5.4235188
17565.7180000	1.4119523
17415.9300000	-38.6074720
17420.9370000	-15.0123210
17331.1130000	15.3261440
17242.4700000	26.6785870
17094.6770000	30.1331610
17093.4640000	-2.5741514
16942.1880000	11.3112330
16934.3020000	-10.1961040
16806.9670000	12.1421420
16691.8450000	45.7008020
16653.0980000	-10.3914760
16579.5200000	29.9455740
16484.5490000	-2.3407715
16423.6450000	-17.2908260
16352.6020000	24.5769770
16231.1580000	2.9067505
16189.9890000	34.6830360
16082.4460000	34.0348010
16023.2700000	45.7062910
16000.9870000	-6.9134080
15859.9940000	-24.4208710
15799.0430000	25.4097140
15754.0050000	-1.9193571
15639.5960000	-44.7145910
15574.9380000	-14.5979340
15549.1960000	8.5953700
15466.3350000	34.8614330
15357.9850000	-37.6542640
15276.5150000	-9.4357423
15232.4140000	42.2522850
15141.7410000	42.6326090
15127.8380000	35.8228980
14999.2120000	14.3056620
14970.0330000	-28.9479410
14854.0840000	-16.8022660
14760.0390000	-7.9965108
14722.5670000	-30.4540510
14671.3830000	-25.0722330
14580.7540000	0.3559849
14548.4260000	-4.5277719
14439.9440000	-45.2820740
14408.2550000	30.5821410
14368.3880000	22.2377510
14297.0680000	-18.6909550
14219.4670000	-34.1089910
14159.4730000	21.3832640
14098.8450000	-20.1902480
14003.9170000	32.6567240
13879.8190000	-13.8393380
13830.7460000	-26.6727360
13802.1100000	-0.5367004
13691.0210000	-37.8360600
13648.3380000	-22.4660610
13636.8150000	29.0494090
13543.2630000	36.4199930
13452.3880000	-26.4742700
13371.9970000	11.5043750
13384.9830000	36.5386270
13281.2850000	4.0200860
13245.0440000	18.2183210
13115.2990000	-2.3131915
13111.0270000	-21.0797850
13003.3130000	-35.7992340
12940.5030000	-29.6398770
12882.4970000	10.7084230
12849.1830000	-7.1562815
12830.8240000	22.1343240
12736.5340000	-41.6632170
12661.0820000	-33.9237020
12644.9060000	-10.9026760
12555.3290000	-11.9457900
12521.8270000	39.4268520
12452.4630000	-21.5443720
12339.3440000	16.6317490
12316.5520000	44.7954020
12272.7750000	3.1359797
12224.5520000	-17.3867900
12099.9650000	-34.2736410
12047.3350000	-23.9560100
12043.8630000	-10.9634780
11951.9580000	38.1180930
11924.8280000	21.4036650
11842.2250000	38.9042260
11822.0670000	2.7721123
11739.9960000	32.7625840
11671.6120000	-42.9543120
11675.0380000	-19.5267630
11590.5190000	26.2649620
11532.5660000	5.0508528
11491.0080000	-45.5803430
11399.0150000	-35.9028660
11379.2860000	46.8065410
11347.5270000	23.6761720
11237.1650000	12.0785840
11164.2080000	-41.8189130
11151.6930000	23.4801190
11136.6470000	46.6368800
11072.1260000	39.8786270
10992.4100000	44.0014350
10987.5630000	46.2619210
10865.3710000	-4.1835948
10883.5500000	-17.0606100
10811.5990000	20.4742350
10738.1470000	-5.3911597
10713.6380000	42.7357200
10672.7390000	-12.6674950
10553.7290000	40.8517880
10584.5100000	1.7448736
10485.6730000	-16.4147350
10476.3460000	0.1738037
10359.9810000	-42.2202220
10336.6740000	18.3298160
10305.3750000	35.7963660
10215.5000000	34.1338400
10168.8980000	-24.0001610
10156.7960000	4.7937998
10141.8480000	28.2137870
10012.6650000	0.9987198
10046.8000000	-6.4488912
9976.1424000	32.2294790
9911.5905000	-40.8334540
9885.2306000	-12.8061080
9817.5190000	6.1248514
9745.3716000	29.5817310
9708.8433000	17.5089840
9717.0729000	21.8656320
9666.4191000	11.8151350
9582.0888000	7.9590116
9521.3626000	-9.2049052
9515.8014000	-39.8314460
9422.6133000	1.9968622
9446.7438000	-37.4153530
9380.2344000	4.5816767
9341.0955000	-24.2469840
9259.2752000	36.1364310
9203.0561000	5.6040186
9204.9311000	39.3057770
9141.9895000	4.6312895
9112.0090000	27.1749190
9040.1474000	42.8773100
9009.9199000	8.9705577
8979.4214000	11.4582420
8963.8413000	16.0988230
8869.7254000	42.9980550
8837.9857000	-1.0744666
8815.6835000	-26.0405230
8778.5416000	-26.9255990
8768.9837000	8.8371539
8698.9016000	-36.3894110
8649.5991000	-35.9573700
8569.2369000	-0.7830523
8562.5480000	-11.1006060
8546.7983000	-3.2128012
8449.8191000	-22.4663720
8485.8341000	-24.4669490
8422.3659000	1.6424692
8351.9143000	-13.4960970
8370.6956000	6.9924206
8270.3186000	-30.1448990
8292.7559000	-15.1574210
8170.9812000	-34.6561110
8218.6317000	6.9243146
8180.8094000	24.8241220
8130.2836000	-16.1107940
8049.4115000	-29.0054880
8030.0198000	-25.0284810
7938.6338000	-11.1048090
7950.0292000	-24.4323060
7911.3049000	25.0730430
7917.1120000	-2.3926700
7823.4827000	-45.3299160
7762.9201000	6.6561311
7724.9124000	8.8186535
7716.0025000	-1.1206415
7684.1581000	4.5354644
7644.9346000	-15.1758520
7653.8198000	-41.9363540
7535.6598000	32.9088330
7556.9498000	-11.1273500
7504.3934000	-7.5923510
7463.4752000	32.4525520
7443.9341000	22.2438540
7412.0925000	12.4545350
7372.0832000	-18.2466690
7298.8901000	46.9312260
7269.6901000	-38.5388370
7241.7031000	8.7281165
7198.9443000	-20.3987200
7216.1532000	0.9905801
7127.9779000	21.5881930
7176.9961000	-20.6506040
7086.6995000	-28.7298760
7073.9567000	44.1082290
7014.4376000	-7.0902929
6996.4919000	-39.6360930
6938.0563000	43.5250860
6936.1024000	2.1811440
6873.9669000	6.9272259
6906.5837000	35.5213690
6838.0695000	-4.9861995
6840.9382000	-27.8490590
6726.1171000	-27.6997930
6713.5420000	7.6183116
6733.7695000	6.4014964
6698.4166000	8.0378944
6663.7563000	-41.8546690
6589.8094000	40.5459850
6586.9581000	11.3387280
6505.7447000	-42.1443890
6505.9503000	34.0020950
6491.7783000	35.6162980
6486.4060000	-8.5216229
6403.1803000	-10.6956050
6360.5729000	-1.1666587
6377.5987000	26.9341280
6380.1819000	34.0868120
6281.6327000	23.0720150
6314.3290000	40.0801450
6246.9338000	0.4512829
6252.8449000	44.0015490
6232.8342000	-18.2274380
6116.0351000	-7.0574154
6131.5513000	-28.6895160
6095.4764000	-12.3918890
6108.7500000	34.4596960
6029.6396000	27.5559710
6055.4734000	41.2953920
6011.4985000	-28.6379410
5914.6740000	20.6741440
5930.9031000	35.7962490
5896.1516000	26.8330400
5896.9292000	-3.7626100
5826.7578000	10.5204420
5847.0041000	-30.6265770
5819.4089000	-14.7104220
5778.9535000	23.7651020
5727.1525000	32.4151180
5706.0410000	39.6716300
5712.5516000	-47.0273890
5691.8703000	41.5587500
5637.2486000	-4.2761431
5652.7801000	22.7066220
5562.9807000	0.3837992
5551.8442000	-29.1499560
5564.6157000	-29.1333320
5522.4484000	34.1436250
5444.6674000	40.7767250
5476.8029000	-11.9949020
5457.8458000	35.6840960
5354.9690000	-36.8526360
5400.7397000	-37.6333340
5323.1541000	-29.5832570
5333.0997000	-15.6855430
5287.7669000	-18.5523300
5304.9524000	-13.9909290
5223.7764000	-13.8380350
5210.3134000	1.4634621
5203.1078000	46.2883060
5201.2193000	20.2717850
5187.9637000	-12.2859060
5093.2611000	-8.2839430
5083.7899000	-32.5038350
5098.9849000	-4.4595250
5058.0472000	-36.9911970
5057.2009000	27.5082720
5005.1666000	19.4465380
4980.8322000	-2.8963684
4969.2977000	-5.2140870
4978.1235000	14.3720750
4949.6838000	-43.0351190
4851.5251000	26.1258160
4905.6822000	-27.7580880
4883.0899000	17.9103390
4832.9211000	-20.9416780
4775.0577000	-8.8346677
4785.4536000	-42.3252840
4794.2323000	-31.1347970
4734.4942000	-11.6164470
4678.1734000	-13.6295200
4719.2542000	23.7267730
4695.8165000	0.2442591
4645.0232000	-20.0568010
4648.9778000	-2.7570112
4567.8643000	16.4337230
4613.3488000	-24.3144660
4524.2845000	8.8056006
4513.9094000	-39.2943630
4530.7760000	43.1619110
4527.2911000	-9.2851256
4425.5882000	-43.6190540
4456.6940000	14.8355470
4476.3456000	15.8477640
4398.7787000	-45.4320690
4359.6107000	10.5327320
4391.8131000	-31.9527470
4341.9544000	-30.8621760
4350.2482000	15.1550620
4314.0216000	-3.2588913
4281.9091000	24.0752300
4240.3298000	11.1898000
4247.3032000	-39.5330610
4186.0783000	27.5558570
4163.8534000	-38.3460440
4197.2932000	-36.2070050
4204.8048000	-7.0769446
4160.1262000	-35.8660990
4136.5096000	-5.2725206
4074.0343000	-12.8370110
4068.9168000	42.2963850
4053.3716000	26.3482000
4049.1033000	-46.7822840
4044.1654000	45.7506300
4010.4029000	29.6269840
3971.6915000	16.6068280
4014.7023000	-24.0034340
3931.5926000	-26.0266470
3958.9373000	17.2786920
3940.5029000	10.8967640
3867.2127000	7.8586875
3837.2106000	24.8860540
3904.4535000	41.1822510
3844.3680000	30.4813330
3824.2681000	-36.5374510
3792.1135000	30.4539230
3814.2528000	16.3610050
3738.2576000	-8.1041314
3727.9224000	29.0117180
3739.1785000	-36.5409140
3759.6350000	-31.7386300
3709.3836000	-37.9936140
3659.8169000	-8.0259489
3654.3278000	-31.3637370
3607.0326000	-22.5064100
3618.6162000	33.6469400
3640.6810000	-40.9628820
3606.1219000	-33.6695000
3541.9430000	-10.2574080
3564.7516000	36.0998530
3535.9231000	5.0192476
3560.0042000	-15.8347240
3518.2805000	-12.6493630
3528.8665000	-13.4520800
3439.0592000	-16.7350670
3465.9973000	-0.7397503
3476.1202000	19.5254020
3457.6092000	-45.3297070
3450.2556000	7.9718179
3406.8967000	-3.4356573
3430.9469000	-31.6516650
3381.4713000	45.7361280
3368.7924000	17.4796630
3307.6626000	20.5514380
3298.2145000	-36.0206490
3303.6036000	-10.9648990
3293.2447000	31.1327730
3294.5048000	35.2574390
3241.6087000	-37.8151240
3287.3855000	33.1619780
3190.9734000	-14.3829700
3195.1629000	-41.8758320
3192.0302000	18.4311120
3217.1501000	1.1412592
3210.5013000	14.4482590
3114.8919000	13.1343000
3152.2584000	-12.9717070
3109.6173000	21.8690750
3099.5757000	-1.5536486
3111.0637000	-40.0561660
3090.4145000	7.7067100
3052.1865000	11.7804830
3068.8810000	28.3269920
2996.8954000	-2.6711292
3034.2872000	-41.8611070
2997.4275000	-22.7223560
3035.3016000	-38.7543590
2979.2466000	45.7361260
2932.4573000	27.2751720
2994.2999000	36.9212980
2949.9833000	25.5496720
2947.3197000	8.9504089
2916.4455000	1.3418745
2901.6451000	10.4601230
2847.4298000	32.9223050
2856.9322000	-35.9201030
2894.6859000	34.2289750
2850.8959000	6.3176011
2803.6401000	19.3743030
2771.1773000	-45.6073340
2790.5581000	27.2975810
2827.2240000	16.3582710
2737.4855000	14.4152060
2791.7053000	47.0446890
2719.7445000	-45.3700470
2750.3094000	9.0828824
2708.5670000	-4.1625526
2754.5270000	-37.4127190
2693.6725000	26.7969070
2712.2893000	-13.6084440
2708.5388000	21.8852730
2668.3930000	-3.3838789
2615.1844000	38.2013080
2638.7126000	33.1200350
2609.8781000	-34.1143320
2595.7411000	-31.1370020
2562.9839000	-44.5001190
2629.5517000	1.5175933
2575.9255000	30.2247270
2555.9501000	-7.0282170
2521.7497000	44.1468190
2554.9583000	20.4366650
2510.5538000	41.8995220
2563.2385000	-5.2617345
2522.3302000	43.0744170
2470.1610000	42.2527850
2474.1996000	-34.2118940
2474.4897000	45.8302400
2477.8047000	27.1250170
2477.0040000	41.6537760
2418.0421000	-32.9427810
2443.9779000	-11.4767050
2415.6486000	15.6583610
2410.1758000	27.5495770
2430.9541000	-42.9120290
2409.5708000	39.4434360
2398.8018000	-42.0764670
2361.6826000	42.6553520
2367.4592000	8.3718084
2318.3997000	46.1282500
2367.4725000	-19.6380910
2313.4893000	-30.0034240
2348.0003000	28.2737070
2315.2131000	34.0482600
2232.9339000	-28.4806000
2306.7797000	-14.6195780
2217.2020000	38.3566220
2201.9531000	29.6817560
2253.5533000	-43.3459780
2243.2305000	19.3190150
2248.7644000	0.9782514
2230.6167000	-36.4506190
2220.4975000	-45.9861680
2222.8410000	43.2232080
2196.7876000	-38.4103040
2156.6170000	-5.1951123
2164.8309000	-40.7198490
2144.1009000	-23.0166290
2134.6267000	-21.6128890
2166.7965000	7.4059606
2157.9713000	-45.3442540
2087.9537000	26.3352400
2070.4700000	27.0716610
2090.0331000	-9.5768960
2088.1345000	2.6226774
2104.5267000	11.2407290
2061.3840000	21.1870840
2033.1017000	-35.8901660
2021.6567000	-44.5120500
2028.8241000	-34.3735350
2011.7634000	-17.8982640
1978.4387000	4.2064341
2003.9724000	8.8547911
1988.6428000	-30.5813730
1972.5871000	-11.0295380
1945.9518000	19.6170940
1989.5728000	32.3432930
1907.6389000	34.4741210
1954.5896000	2.1784431
1942.8351000	1.9953623
1898.1862000	-35.8794440
1888.2409000	22.9364230
1886.3788000	21.0469600
1862.5177000	-36.8977460
1842.9462000	11.5764020
1919.1101000	-24.9248700
1911.6849000	-31.8334310
1908.5636000	0.6457971
1848.2248000	27.8189860
1842.4515000	-13.4418640
1872.2705000	14.5867120
1832.9757000	22.0268840
1842.5161000	-23.3418680
1811.6660000	17.4427610
1831.6549000	1.6796912
1785.2503000	42.8594920
1770.9914000	-26.7070620
1756.5406000	-37.6406890
1760.1770000	-44.2222540
1715.6094000	-29.3797670
1738.2276000	-18.4903610
1707.0907000	-23.4331100
1756.5671000	0.0119654
1690.4474000	-34.3693600
1725.6518000	10.6591670
1728.1955000	-39.5075640
1732.9739000	25.8433060
1718.0850000	-33.1646010
1659.9070000	2.2129290
1707.6501000	-22.5467750
1633.0259000	-13.6413100
1628.0802000	-19.8374770
1675.8198000	-14.6179680
1668.6930000	20.6672160
1675.1775000	10.7663710
1651.1223000	-44.0343450
1635.2116000	-27.2620270
1649.0443000	-32.3249210
1611.4002000	-1.0483973
1604.4723000	-46.4136930
1553.1254000	25.8216750
1598.6244000	11.0803530
1606.0820000	35.0150640
1524.4087000	20.3945310
1558.6451000	-39.9912740
1591.7182000	27.2007050
1554.5712000	26.5589100
1519.7680000	44.6293080
1512.2915000	-9.5929513
1512.3907000	-25.0397880
1483.2494000	-17.4070710
1498.1676000	38.2370670
1478.1119000	-1.4397090
1478.8530000	-42.4775410
1532.0526000	-17.5681830
1509.9701000	-15.0264940
1442.3590000	-38.2786900
1440.6076000	-16.9066380
1485.2756000	27.2864610
1435.0091000	-17.9711180
1407.2879000	-19.8224940
1476.8231000	-11.3588200
1434.6685000	-19.9978210
1401.3366000	-4.1929170
1406.5088000	46.7538140
1412.1943000	-34.9317240
1429.0961000	7.6849016
1448.4120000	-9.8982014
1364.4996000	-7.2926043
1404.2417000	-5.6183807
1357.0075000	11.6236670
1388.2813000	-36.3234060
1387.5259000	-19.5220370
1354.0908000	-36.3622450
1354.0420000	-35.0769870
1364.4491000	38.6373420
1342.5875000	13.0755490
1297.9868000	5.6887635
1352.6403000	44.2005200
1361.7173000	25.1827870
1329.3743000	36.1844540
1308.3770000	4.8969701
1337.6092000	16.3511850
1259.4262000	35.3661710
1341.9322000	27.2218940
1285.8766000	5.5721512
1266.6458000	-17.7049960
1276.7228000	44.9223220
1303.3945000	-1.2734961
1229.6342000	-24.3312270
1285.4246000	41.4120550
1261.6602000	-46.8924040
1290.3588000	19.7621110
1280.1518000	7.3492566
1188.4201000	-38.7232690
1187.8194000	-33.3727620
1258.5605000	11.5740610
1199.1771000	13.0450470
